!Mini-Circuits Laboratory
!S-Parameters
!Model: ZX60-33LNR-S+
!Run / Lot / Date Code: E181103 / N/A / N/A
!Fixture: N/A, Pressing Arm: N/A
!Network Analyzer: PNA-X N5242A - 423 4 ports;  Serial number: 74302
!Date: 11/9/2018 at 2:33:56 PM
!S/N: Unit# 1
!Volage and Current limited to 5V and 150mA
# Hz  S  dB  R  50
!Frequency    S11 dB        S11 Deg       S21 dB        S21 Deg       S12 dB        S12 Deg       S22 dB        S22 Deg       
10000000      -7.0576970    -7.7591180    24.6828700    -166.0228000  -39.7409900   81.6027700    -16.1735300   56.7895300    
15000000      -7.2183050    -10.3532500   24.8306400    -172.1559000  -36.9645200   66.6472400    -20.2707500   10.6608300    
20000000      -7.4893660    -12.0708400   24.8638000    -176.3720000  -35.3663900   55.3274800    -22.6232400   -28.8665500   
25000000      -7.6896060    -13.6052300   24.8571500    -179.1805000  -34.4014000   47.2254600    -23.0603800   -63.2982500   
30000000      -7.7974120    -14.9299900   24.8362400    178.9089000   -33.8028500   41.1911900    -22.4866100   -86.0740200   
35000000      -7.8746230    -16.1223900   24.8160400    177.2302000   -33.3808700   36.4434600    -21.9817300   -101.6310000  
40000000      -7.9411670    -17.4301800   24.8029100    175.6880000   -33.0906800   32.5467100    -21.5521200   -113.5686000  
45000000      -7.9725080    -18.7640300   24.7903000    174.2906000   -32.8723400   29.4159300    -21.2220000   -122.4870000  
50000000      -7.9184900    -19.9585900   24.7868900    172.9125000   -32.6569800   26.8766300    -21.1351700   -130.0661000  
55000000      -8.0017710    -21.5151100   24.7739900    171.7828000   -32.5715100   24.6751400    -20.7612200   -135.2412000  
60000000      -8.0016490    -23.0207900   24.7638200    170.5947000   -32.4680000   22.8055700    -20.6108900   -140.0424000  
65000000      -8.0072270    -24.5034000   24.7538200    169.4378000   -32.3817500   21.2257300    -20.4827400   -144.2456000  
70000000      -8.0077870    -26.0357200   24.7408900    168.2977000   -32.3112700   19.8428100    -20.3840000   -147.9518000  
75000000      -8.0134430    -27.6123500   24.7264300    167.1846000   -32.2524000   18.6085700    -20.2811500   -151.2285000  
80000000      -8.0042860    -29.1074000   24.7154500    166.0930000   -32.2014300   17.5380200    -20.2266200   -154.0835000  
85000000      -7.9901660    -30.6688000   24.7027400    165.0089000   -32.1537500   16.6038900    -20.1887100   -156.6394000  
90000000      -7.9766120    -32.2406100   24.6887400    163.9440000   -32.1147900   15.7489300    -20.1472300   -158.8913000  
95000000      -7.9674670    -33.7651000   24.6748300    162.8935000   -32.0739800   14.9793400    -20.1224100   -161.0919000  
100000000     -7.9541990    -35.3754200   24.6615300    161.8395000   -32.0379400   14.2712100    -20.0960300   -163.0191000  
105000000     -7.9485480    -36.8865100   24.6433600    160.8077000   -32.0072800   13.6711900    -20.0886000   -164.9538000  
110000000     -7.9288850    -38.4638200   24.6298600    159.7933000   -31.9742800   13.0727200    -20.0763300   -166.4582000  
115000000     -7.9197310    -40.0427000   24.6095700    158.7699000   -31.9471000   12.5357500    -20.0648800   -168.2676000  
120000000     -7.9109560    -41.5584000   24.5899100    157.7597000   -31.9262900   12.0720200    -20.0597300   -169.8123000  
125000000     -7.8862590    -43.0830600   24.5724900    156.7685000   -31.8969400   11.6102400    -20.0684300   -171.3271000  
130000000     -7.8796350    -44.5979000   24.5521100    155.7737000   -31.8695800   11.2219100    -20.0662200   -172.7672000  
135000000     -7.8645320    -46.1374400   24.5309500    154.7906000   -31.8439300   10.8054400    -20.0793900   -174.0956000  
140000000     -7.8350210    -47.7213400   24.5121100    153.8130000   -31.8084500   10.4773300    -20.0806200   -175.2415000  
145000000     -7.8337930    -49.2080900   24.4916500    152.8429000   -31.7942200   10.1307500    -20.0930500   -176.5994000  
150000000     -7.8102880    -50.7308800   24.4698900    151.8750000   -31.7717400   9.7973450     -20.1057800   -177.7814000  
155000000     -7.7960240    -52.2526300   24.4471800    150.9126000   -31.7442700   9.5028610     -20.1203600   -178.9258000  
160000000     -7.7755620    -53.7660400   24.4251700    149.9342000   -31.7210600   9.2284980     -20.1213000   179.9155000   
165000000     -7.7633580    -55.2563200   24.4013500    148.9888000   -31.6977800   8.9560170     -20.1420000   178.8181000   
170000000     -7.7460270    -56.6811300   24.3764200    148.0356000   -31.6733000   8.6912720     -20.1657100   177.7029000   
175000000     -7.7219680    -58.1461100   24.3537200    147.0948000   -31.6476500   8.4520920     -20.1916100   176.7395000   
180000000     -7.7081860    -59.5987600   24.3278600    146.1615000   -31.6223500   8.1975030     -20.2097300   175.7599000   
185000000     -7.6853130    -61.0545300   24.3034100    145.2147000   -31.5970700   8.0105440     -20.2263900   174.8225000   
190000000     -7.6749080    -62.4787100   24.2762700    144.2840000   -31.5715700   7.7752970     -20.2513500   173.8497000   
195000000     -7.6532260    -63.8989500   24.2502200    143.3536000   -31.5482500   7.5616190     -20.2797000   172.9369000   
200000000     -7.6426110    -65.3406800   24.2220700    142.4348000   -31.5219300   7.3208080     -20.2868300   172.0518000   
205000000     -7.6195840    -66.6975300   24.1956000    141.5203000   -31.4961100   7.1544290     -20.3277100   171.2126000   
210000000     -7.6029320    -68.1303900   24.1667700    140.5947000   -31.4705800   6.9664160     -20.3540000   170.3872000   
215000000     -7.5807810    -69.5111500   24.1411100    139.6862000   -31.4444400   6.7818590     -20.3889800   169.6431000   
220000000     -7.5654910    -70.8220600   24.1125700    138.7901000   -31.4198000   6.5969510     -20.4261300   168.8150000   
225000000     -7.5484500    -72.2449300   24.0840000    137.8591000   -31.3908900   6.4212650     -20.4439700   168.0621000   
230000000     -7.5334360    -73.5555600   24.0553400    136.9841000   -31.3656100   6.2304960     -20.4906300   167.2664000   
235000000     -7.5124850    -74.9462400   24.0268700    136.0790000   -31.3373700   6.0625330     -20.5113900   166.5640000   
240000000     -7.4961980    -76.2602100   23.9968100    135.1889000   -31.3061800   5.8876580     -20.5428500   165.8042000   
245000000     -7.4793010    -77.5927800   23.9668700    134.2928000   -31.2799500   5.7114380     -20.5694200   165.0334000   
250000000     -7.4601420    -78.9896500   23.9355600    133.3973000   -31.2494900   5.5229620     -20.6069700   164.3389000   
255000000     -7.4425070    -80.2405900   23.9058600    132.5238000   -31.2234200   5.3811720     -20.6587800   163.5431000   
260000000     -7.4223710    -81.5388800   23.8755600    131.6396000   -31.1954200   5.2001360     -20.6978000   162.8247000   
265000000     -7.4019340    -82.8235900   23.8462700    130.7601000   -31.1672900   5.0487720     -20.7388700   162.1555000   
270000000     -7.3861700    -84.0831900   23.8143400    129.8933000   -31.1381500   4.8754030     -20.7851900   161.3941000   
275000000     -7.3694900    -85.3805100   23.7829600    129.0295000   -31.1095300   4.6980160     -20.8246000   160.7379000   
280000000     -7.3489340    -86.6269900   23.7488500    128.1639000   -31.0790800   4.5435680     -20.8763600   160.0418000   
285000000     -7.3316220    -87.8994800   23.7152900    127.3014000   -31.0480400   4.3821590     -20.9267700   159.3480000   
290000000     -7.3093480    -89.1433200   23.6842500    126.4457000   -31.0164500   4.2112580     -20.9618100   158.7330000   
295000000     -7.2919110    -90.3534400   23.6517400    125.5872000   -30.9886300   4.0492950     -21.0122900   158.0640000   
300000000     -7.2718040    -91.5698700   23.6203400    124.7443000   -30.9598100   3.8682640     -21.0639100   157.5270000   
305000000     -7.2564590    -92.7604600   23.5865600    123.8927000   -30.9269200   3.7153950     -21.1146100   156.8097000   
310000000     -7.2340860    -93.9593100   23.5546900    123.0559000   -30.8938800   3.5585640     -21.1647800   156.2805000   
315000000     -7.2194310    -95.1332500   23.5205600    122.2212000   -30.8648000   3.3861240     -21.2061700   155.6363000   
320000000     -7.2054070    -96.3108100   23.4876100    121.3889000   -30.8327700   3.2259520     -21.2516000   155.0241000   
325000000     -7.1877880    -97.4717700   23.4540000    120.5662000   -30.8022800   3.0556200     -21.2900200   154.4252000   
330000000     -7.1658710    -98.6441300   23.4197000    119.7110000   -30.7717800   2.9077460     -21.3343500   153.8270000   
335000000     -7.1502820    -99.7989800   23.3863100    118.8869000   -30.7389300   2.7188690     -21.3779700   153.2915000   
340000000     -7.1348410    -100.9213000  23.3510600    118.0631000   -30.7071800   2.5541690     -21.4314900   152.6809000   
345000000     -7.1152630    -102.0526000  23.3178000    117.2384000   -30.6745100   2.3877700     -21.4919400   152.1424000   
350000000     -7.1007500    -103.2214000  23.2836600    116.3979000   -30.6467000   2.2055370     -21.5137000   151.5892000   
355000000     -7.0881640    -104.3194000  23.2474000    115.5954000   -30.6102900   2.0202800     -21.5780800   151.0289000   
360000000     -7.0690650    -105.4159000  23.2133900    114.7904000   -30.5779100   1.8589410     -21.6308800   150.5302000   
365000000     -7.0612330    -106.5257000  23.1776800    113.9831000   -30.5489100   1.6705680     -21.6763400   149.9164000   
370000000     -7.0459210    -107.6499000  23.1412400    113.1645000   -30.5153000   1.4879900     -21.7232600   149.3766000   
375000000     -7.0314180    -108.7044000  23.1060200    112.3603000   -30.4827700   1.3158290     -21.7717000   148.8258000   
380000000     -7.0105210    -109.7759000  23.0720500    111.5535000   -30.4503600   1.1313150     -21.8248400   148.3235000   
385000000     -7.0015390    -110.8269000  23.0358500    110.7574000   -30.4196800   0.9504502     -21.8786000   147.7109000   
390000000     -6.9818600    -111.8652000  23.0017900    109.9532000   -30.3864900   0.7779535     -21.9334600   147.2028000   
395000000     -6.9704230    -112.9047000  22.9648700    109.1645000   -30.3529900   0.5902842     -21.9855700   146.6026000   
400000000     -6.9564180    -113.9713000  22.9294500    108.3620000   -30.3207800   0.3966559     -22.0413000   146.1382000   
405000000     -6.9412060    -114.9760000  22.8927300    107.5791000   -30.2880800   0.2211077     -22.1050900   145.5374000   
410000000     -6.9301460    -116.0217000  22.8553400    106.7888000   -30.2553900   0.0174871     -22.1439000   145.0618000   
415000000     -6.9149200    -117.0315000  22.8181600    106.0122000   -30.2228000   -0.1657656    -22.2110200   144.4818000   
420000000     -6.9048610    -118.0133000  22.7821200    105.2280000   -30.1878600   -0.3617496    -22.2741700   143.9205000   
425000000     -6.8923560    -119.0108000  22.7474500    104.4491000   -30.1573900   -0.5612546    -22.3362100   143.5094000   
430000000     -6.8804670    -119.9598000  22.7114400    103.6784000   -30.1225800   -0.7499695    -22.4099600   143.0231000   
435000000     -6.8709770    -120.9479000  22.6741900    102.9040000   -30.0920500   -0.9444415    -22.4683500   142.5285000   
440000000     -6.8592600    -121.9229000  22.6360600    102.1392000   -30.0583600   -1.1432750    -22.5342500   142.0651000   
445000000     -6.8506040    -122.8826000  22.5986500    101.3737000   -30.0253300   -1.3500750    -22.5953400   141.6266000   
450000000     -6.8380570    -123.8494000  22.5608400    100.6157000   -29.9929800   -1.5569470    -22.6628700   141.1460000   
455000000     -6.8278690    -124.8015000  22.5232700    99.8494400    -29.9598200   -1.7443760    -22.7254400   140.7418000   
460000000     -6.8228200    -125.7125000  22.4857700    99.0950100    -29.9290300   -1.9586310    -22.7942100   140.2636000   
465000000     -6.8135070    -126.6605000  22.4480200    98.3364400    -29.8938400   -2.1565240    -22.8650600   139.8690000   
470000000     -6.8068620    -127.5821000  22.4115500    97.5861100    -29.8621800   -2.3566750    -22.9345800   139.4771000   
475000000     -6.7950350    -128.5004000  22.3749600    96.8334900    -29.8287000   -2.5683470    -23.0134400   139.1308000   
480000000     -6.7847790    -129.4199000  22.3366800    96.0880500    -29.7951400   -2.7755740    -23.0890000   138.6816000   
485000000     -6.7742230    -130.3250000  22.2994300    95.3422800    -29.7636400   -2.9874600    -23.1652400   138.3258000   
490000000     -6.7714000    -131.2336000  22.2605600    94.6036800    -29.7308600   -3.2104110    -23.2324600   137.8532000   
495000000     -6.7555200    -132.1327000  22.2234400    93.8601800    -29.6983500   -3.4174450    -23.3135000   137.5352000   
500000000     -6.7515120    -133.0020000  22.1859700    93.1320000    -29.6655900   -3.6395120    -23.3937800   137.1461000   
525000000     -6.7008530    -137.3251000  21.9972900    89.4850300    -29.5040600   -4.7279010    -23.7947500   135.2808000   
550000000     -6.6740430    -141.4831000  21.8127200    85.9009900    -29.3457400   -5.8731360    -24.1759500   133.3892000   
575000000     -6.6323080    -145.6112000  21.6224300    82.4052400    -29.1735000   -7.0198210    -24.6185200   132.0821000   
600000000     -6.6032760    -149.4082000  21.4430300    78.9183900    -29.0070100   -8.1787610    -25.0488400   130.7183000   
625000000     -6.5723470    -153.1588000  21.2580800    75.4895100    -28.8432100   -9.4052680    -25.5283000   129.5443000   
650000000     -6.5533200    -156.8898000  21.0759000    72.1032500    -28.6803100   -10.7063700   -25.9838800   128.4327000   
675000000     -6.5316660    -160.5846000  20.8933400    68.7264300    -28.5149500   -12.0368400   -26.4699600   127.4705000   
700000000     -6.5023370    -164.2695000  20.7041100    65.3707200    -28.3551300   -13.4329800   -26.9760400   126.3736000   
725000000     -6.5612620    -168.0015000  20.4964300    62.1654900    -28.2308200   -14.8674200   -27.8054900   124.5277000   
750000000     -6.6345960    -170.5632000  20.3404400    59.3084900    -28.0758400   -15.8880000   -28.8163700   127.7019000   
775000000     -6.5818920    -173.5625000  20.1925300    56.0446500    -27.8870400   -17.3083400   -29.2320500   129.1009000   
800000000     -6.5559010    -176.7906000  20.0233100    52.8186700    -27.7275100   -18.7938500   -29.7837100   130.1403000   
825000000     -6.5575320    -179.8358000  19.8566800    49.6648000    -27.5701100   -20.3062600   -30.4156700   131.8643000   
850000000     -6.5628770    177.1389000   19.6896500    46.5634800    -27.4166300   -21.7893800   -31.1315800   134.2602000   
875000000     -6.5649310    174.1384000   19.5203500    43.5002700    -27.2638400   -23.3639600   -31.7693900   137.3653000   
900000000     -6.5806920    171.2659000   19.3575100    40.4620400    -27.1153600   -24.9248000   -32.5084300   142.0392000   
925000000     -6.5858770    168.4926000   19.1959500    37.4397200    -26.9699800   -26.4609500   -33.1349300   147.2933000   
950000000     -6.6079380    165.6991000   19.0348300    34.4569200    -26.8270700   -28.0603100   -33.6443000   154.7291000   
975000000     -6.6148380    162.9837000   18.8771900    31.4802300    -26.6831900   -29.6508500   -33.8051300   162.3490000   
1000000000    -6.6383890    160.2473000   18.7182400    28.5360400    -26.5437500   -31.3001000   -33.8159800   170.2944000   
1025000000    -6.6667170    157.6320000   18.5615300    25.5994800    -26.4120800   -32.9459400   -33.5918800   178.2103000   
1050000000    -6.6840090    155.0284000   18.4043300    22.6723300    -26.2753800   -34.6381000   -33.1075800   -174.0908000  
1075000000    -6.6908010    152.4541000   18.2463200    19.7827400    -26.1473400   -36.3278300   -32.3383500   -166.4306000  
1100000000    -6.7152140    149.8198000   18.0890000    16.8666500    -26.0232400   -38.0186200   -31.2834200   -160.4661000  
1125000000    -6.7225380    147.0859000   17.9182800    14.0121700    -25.9144900   -39.7384100   -30.0506100   -155.4778000  
1150000000    -6.7306730    144.2521000   17.7363800    11.2689800    -25.8239800   -41.3558500   -28.4561100   -152.8340000  
1175000000    -6.7915740    141.2164000   17.5473900    8.8516800     -25.7296300   -42.6266500   -26.7211200   -155.4688000  
1200000000    -6.9634200    138.3793000   17.4312200    6.7172710     -25.5608100   -43.7351100   -25.8057000   -163.7651000  
1225000000    -7.1098440    136.4691000   17.3800500    4.1565410     -25.3458000   -45.3488700   -25.9356200   -169.4641000  
1250000000    -7.1816060    134.5108000   17.2980800    1.2695030     -25.1657400   -47.2865800   -26.1299900   -170.1612000  
1275000000    -7.2276300    132.5049000   17.1928400    -1.6474810    -25.0166800   -49.2403700   -26.0523900   -169.5869000  
1300000000    -7.2701550    130.3810000   17.0741400    -4.5193510    -24.8760400   -51.1676600   -25.7887900   -168.6802000  
1325000000    -7.3220100    128.2094000   16.9534000    -7.3396960    -24.7488800   -53.1008200   -25.4163000   -168.0470000  
1350000000    -7.3646060    126.0328000   16.8309600    -10.1312900   -24.6239400   -55.0032900   -24.9553100   -167.7259000  
1375000000    -7.4211360    123.8330000   16.7034600    -12.9046900   -24.5005000   -56.8898700   -24.5170200   -168.1155000  
1400000000    -7.4612850    121.6796000   16.5815000    -15.6484700   -24.3808100   -58.7678200   -24.1042600   -168.5311000  
1425000000    -7.5128580    119.5701000   16.4575300    -18.3628400   -24.2568400   -60.6495000   -23.6738100   -169.1257000  
1450000000    -7.5719100    117.4769000   16.3360400    -21.0551700   -24.1410100   -62.5015600   -23.2759700   -169.8474000  
1475000000    -7.6329320    115.2672000   16.2165000    -23.7293900   -24.0247900   -64.4087400   -22.9041600   -170.8158000  
1500000000    -7.6884290    113.1931000   16.1003200    -26.4131700   -23.9069300   -66.3388400   -22.5274300   -172.0488000  
1525000000    -7.7544830    110.9375000   15.9859300    -29.0708600   -23.7892700   -68.2615500   -22.1601400   -173.2436000  
1550000000    -7.8104210    108.8952000   15.8711400    -31.7326900   -23.6746700   -70.1602700   -21.8563100   -174.4686000  
1575000000    -7.8727220    106.7599000   15.7610900    -34.3817000   -23.5610600   -72.0935500   -21.5381100   -175.7089000  
1600000000    -7.9437160    104.6784000   15.6537800    -37.0233000   -23.4478200   -74.0351500   -21.1611700   -177.1727000  
1625000000    -8.0138970    102.4872000   15.5434700    -39.6519200   -23.3385400   -76.0019100   -20.8566300   -178.7240000  
1650000000    -8.0732520    100.4829000   15.4378800    -42.2653500   -23.2301800   -77.9442400   -20.5703100   179.9488000   
1675000000    -8.1489760    98.2956200    15.3299900    -44.8835700   -23.1203700   -79.9350100   -20.2695500   178.3609000   
1700000000    -8.2329930    96.2703900    15.2247400    -47.5195300   -23.0200000   -81.9190200   -19.9962400   176.5503000   
1725000000    -8.3008520    94.1223200    15.1209300    -50.1167900   -22.9137100   -83.8849000   -19.7326700   175.0740000   
1750000000    -8.3848710    91.9740900    15.0192300    -52.6796200   -22.8084100   -85.8720200   -19.4264900   173.4685000   
1775000000    -8.4643300    89.8810700    14.9185800    -55.2709800   -22.7113100   -87.8582500   -19.1613400   171.7278000   
1800000000    -8.5583130    87.8707700    14.8219300    -57.8538100   -22.6098000   -89.8139300   -18.9133000   169.6152000   
1825000000    -8.6438420    85.8330700    14.7256600    -60.4263400   -22.5049300   -91.8100100   -18.6742200   167.6952000   
1850000000    -8.7344380    83.7734100    14.6298700    -63.0188000   -22.4051700   -93.8299900   -18.4558000   165.6581000   
1875000000    -8.8134610    81.7827500    14.5364700    -65.6064300   -22.3025400   -95.8226900   -18.2594900   163.7180000   
1900000000    -8.9015210    79.6694300    14.4422200    -68.1892300   -22.2000100   -97.8777400   -18.0855200   161.7779000   
1925000000    -8.9766000    77.6186800    14.3509800    -70.7745100   -22.1019600   -99.9147800   -17.8801500   159.7488000   
1950000000    -9.0539490    75.4308300    14.2588600    -73.3277600   -22.0059600   -101.9636000  -17.7008300   157.6814000   
1975000000    -9.1675190    73.4252900    14.1658700    -75.9264500   -21.9098500   -104.0195000  -17.5238200   155.7625000   
2000000000    -9.2608480    71.2686800    14.0770100    -78.4915000   -21.8176600   -106.0992000  -17.3354800   153.7478000   
2025000000    -9.3638770    69.1869500    13.9868600    -81.0507500   -21.7261900   -108.1642000  -17.1958400   151.6900000   
2050000000    -9.4450510    67.0034300    13.8978600    -83.6175700   -21.6322700   -110.2505000  -17.0270000   149.5255000   
2075000000    -9.5405500    65.0134700    13.8074000    -86.1775600   -21.5444600   -112.3233000  -16.8828300   147.3678000   
2100000000    -9.6303120    62.8317700    13.7193600    -88.7293100   -21.4533700   -114.4001000  -16.7407900   145.4274000   
2125000000    -9.7324190    60.5751700    13.6298800    -91.2867900   -21.3680900   -116.5391000  -16.5827900   143.3558000   
2150000000    -9.8203600    58.4963500    13.5379300    -93.8585100   -21.2827600   -118.6083000  -16.4591700   141.0098000   
2175000000    -9.9170610    56.2304800    13.4482100    -96.3955800   -21.2000900   -120.7100000  -16.3562400   138.8056000   
2200000000    -10.0223000   54.0349000    13.3611400    -98.9190500   -21.1218300   -122.8646000  -16.2049000   136.6575000   
2225000000    -10.1119400   51.7954900    13.2673400    -101.4207000  -21.0488300   -124.9536000  -16.0848600   134.1661000   
2250000000    -10.1816100   49.3671000    13.1749100    -103.8788000  -20.9763000   -126.9888000  -16.0092700   131.8127000   
2275000000    -10.2646100   46.8920600    13.0841900    -106.2979000  -20.8964000   -129.0418000  -15.9355000   129.4670000   
2300000000    -10.3575700   44.1902500    12.9998700    -108.6798000  -20.8269800   -131.0620000  -15.8838500   126.6871000   
2325000000    -10.4762900   41.4238800    12.9308900    -110.9716000  -20.7411000   -133.0226000  -15.8860700   124.3432000   
2350000000    -10.6372100   38.7077400    12.8743900    -113.3428000  -20.6478200   -135.0177000  -15.9083600   122.3281000   
2375000000    -10.8134200   36.1200600    12.8251800    -115.8134000  -20.5543200   -137.0842000  -15.9237100   120.1453000   
2400000000    -10.9944600   33.4874200    12.7720500    -118.3508000  -20.4541900   -139.1588000  -15.9310700   118.0929000   
2425000000    -11.1752500   30.9766800    12.7177900    -120.9025000  -20.3595800   -141.2861000  -15.9327700   116.3433000   
2450000000    -11.3310700   28.3543300    12.6622900    -123.4637000  -20.2707500   -143.4556000  -15.9155700   114.5868000   
2475000000    -11.4790700   25.7040000    12.6015700    -126.0207000  -20.1738000   -145.6171000  -15.8870200   112.7827000   
2500000000    -11.6189300   23.2267500    12.5392500    -128.5828000  -20.0839900   -147.7869000  -15.8542300   111.0273000   
2525000000    -11.7919700   20.5083200    12.4784900    -131.1455000  -19.9973500   -150.0189000  -15.8202800   109.0682000   
2550000000    -11.9809500   17.7634900    12.4185600    -133.7482000  -19.9147400   -152.2343000  -15.7911200   107.0307000   
2575000000    -12.1324000   14.7879400    12.3571100    -136.3325000  -19.8292400   -154.4741000  -15.7409400   105.0181000   
2600000000    -12.2957400   12.0223100    12.2922000    -138.9057000  -19.7494800   -156.7011000  -15.6901200   103.0088000   
2625000000    -12.4632400   9.0805640     12.2274000    -141.4664000  -19.6685400   -158.9312000  -15.6806300   100.9985000   
2650000000    -12.6309800   6.1447640     12.1640900    -144.0461000  -19.5939300   -161.2245000  -15.6340300   98.7357200    
2675000000    -12.8130800   3.0837890     12.0999000    -146.6335000  -19.5287400   -163.4805000  -15.6047100   96.2779200    
2700000000    -12.9441700   -0.1779475    12.0344800    -149.1581000  -19.4630100   -165.6816000  -15.6505300   93.8841900    
2725000000    -13.1024700   -3.3525140    11.9712200    -151.7587000  -19.3876700   -167.9201000  -15.6326300   91.7502100    
2750000000    -13.2643300   -6.6599890    11.9057900    -154.2906000  -19.3225200   -170.1592000  -15.6715200   89.2038000    
2775000000    -13.4175900   -10.0646800   11.8452900    -156.8183000  -19.2465100   -172.3717000  -15.7406700   87.1720300    
2800000000    -13.6037200   -13.8372100   11.7845600    -159.4326000  -19.1778200   -174.6583000  -15.7415400   84.8063900    
2825000000    -13.7377100   -17.3686800   11.7185500    -161.9397000  -19.1194800   -176.8800000  -15.8379200   82.1458400    
2850000000    -13.8775900   -21.0673800   11.6574400    -164.4270000  -19.0540500   -179.0681000  -15.9416800   79.8784700    
2875000000    -14.0319100   -25.0905700   11.6058200    -166.9753000  -18.9831300   178.7054000   -16.0223400   77.8255700    
2900000000    -14.1799300   -29.3509100   11.5535400    -169.5410000  -18.9116900   176.4764000   -16.1276200   75.6327100    
2925000000    -14.2960200   -33.5835700   11.4980400    -172.1059000  -18.8422800   174.2260000   -16.2316900   73.4037400    
2950000000    -14.4134700   -37.8928200   11.4481500    -174.6187000  -18.7751500   172.0449000   -16.3943800   71.3556800    
2975000000    -14.5302700   -42.4714700   11.4062500    -177.1803000  -18.6930500   169.7942000   -16.5319300   69.4810000    
3000000000    -14.6952100   -47.2357600   11.3601800    -179.8182000  -18.6105300   167.4951000   -16.6247900   67.8137500    
3025000000    -14.8098500   -52.1887700   11.3185000    177.5329000   -18.5344000   165.1674000   -16.7106800   66.0351100    
3050000000    -14.9236700   -56.7429400   11.2663500    174.8791000   -18.4614400   162.8109000   -16.7965100   63.9273700    
3075000000    -15.0154000   -61.4487700   11.2203700    172.2204000   -18.3881200   160.4568000   -16.9017300   62.0474200    
3100000000    -15.1059600   -66.5561600   11.1698300    169.5024000   -18.3180800   158.0444000   -16.9796800   60.0223100    
3125000000    -15.2501400   -71.3276400   11.1114900    166.7462000   -18.2546400   155.6072000   -17.0222800   57.6815400    
3150000000    -15.2823400   -76.0886400   11.0516800    164.0272000   -18.1925900   153.1808000   -17.1061700   55.2812900    
3175000000    -15.2511700   -81.0119100   10.9928200    161.3217000   -18.1328900   150.7397000   -17.2041900   52.7704400    
3200000000    -15.2354100   -85.9099600   10.9273700    158.6004000   -18.0782700   148.3015000   -17.3329700   50.1467500    
3225000000    -15.2104800   -90.4278500   10.8579500    155.8935000   -18.0285600   145.8504000   -17.4866100   47.5271900    
3250000000    -15.1541900   -95.1685800   10.7864700    153.2014000   -17.9761600   143.3868000   -17.6336000   44.8181800    
3275000000    -15.0591400   -100.2537000  10.7201100    150.5005000   -17.9330200   140.9162000   -17.8031200   41.6977200    
3300000000    -14.9505600   -104.4951000  10.6430300    147.8182000   -17.8895300   138.4904000   -18.0297600   38.6942900    
3325000000    -14.8459100   -109.2053000  10.5694000    145.1254000   -17.8533000   136.0122000   -18.2195100   35.6242000    
3350000000    -14.7006200   -113.6253000  10.4930100    142.4444000   -17.8217900   133.5636000   -18.4229100   32.5152600    
3375000000    -14.5295000   -117.7997000  10.4145200    139.7707000   -17.7887400   131.0945000   -18.6840800   29.0631700    
3400000000    -14.3891800   -122.1816000  10.3311800    137.0888000   -17.7603200   128.6405000   -19.0055200   25.3938400    
3425000000    -14.1930400   -125.8669000  10.2449500    134.4487000   -17.7417200   126.2072000   -19.3672500   21.5501900    
3450000000    -13.9941900   -129.8020000  10.1534600    131.8538000   -17.7214100   123.8253000   -19.7545500   17.5918100    
3475000000    -13.7756300   -133.3989000  10.0665000    129.2506000   -17.7093400   121.4637000   -20.2628800   13.5798200    
3500000000    -13.4750900   -137.0148000  9.9845890     126.7040000   -17.6950500   119.1047000   -20.7950000   9.4920220     
3525000000    -13.1878100   -140.4667000  9.9024920     124.2020000   -17.6775300   116.8545000   -21.4482200   5.0515840     
3550000000    -12.8165100   -143.9178000  9.8314780     121.7234000   -17.6522400   114.5874000   -22.1518700   0.7794311     
3575000000    -12.4663900   -147.4466000  9.7666050     119.1970000   -17.6182400   112.3159000   -22.8858100   -3.2166660    
3600000000    -12.1270500   -151.2358000  9.7034780     116.6190000   -17.5774400   109.9721000   -23.7108200   -7.7796170    
3625000000    -11.8061900   -155.1292000  9.6378940     113.9587000   -17.5444300   107.5868000   -24.7769400   -13.2950600   
3650000000    -11.4672800   -159.3147000  9.5550460     111.2425000   -17.5205300   105.0903000   -26.2125000   -19.8928500   
3675000000    -11.2188900   -163.5899000  9.4329310     108.4978000   -17.5298800   102.5758000   -28.5060300   -27.4792300   
3700000000    -11.0783300   -167.9193000  9.2650680     106.1853000   -17.5962400   100.3253000   -32.7210300   -23.3802500   
3725000000    -11.0447200   -170.6962000  9.1832790     104.7104000   -17.6055700   98.9110000    -32.6338200   8.7208930     
3750000000    -10.7963000   -172.7962000  9.2370880     102.5982000   -17.4799800   97.0865500    -30.2808300   3.1982030     
3775000000    -10.4778100   -175.5133000  9.2531660     99.8843500    -17.3755100   94.7182200    -30.2524400   -9.9771990    
3800000000    -10.1755200   -178.4726000  9.2326080     97.1266500    -17.3060400   92.2455600    -31.1900900   -23.0287900   
3825000000    -9.9242480    178.4158000   9.1926010     94.3076300    -17.2464600   89.7301300    -32.4153600   -36.8341300   
3850000000    -9.6314410    175.3337000   9.1412940     91.5477300    -17.2002000   87.2058900    -33.7048800   -53.4823300   
3875000000    -9.4036700    172.3537000   9.0808530     88.8109600    -17.1609300   84.7344000    -34.7190800   -74.8669600   
3900000000    -9.1779290    169.3667000   9.0156490     86.0553100    -17.1248300   82.2506000    -34.7363900   -97.7574000   
3925000000    -8.9657830    166.3134000   8.9487570     83.3092300    -17.0935300   79.7239700    -33.7729800   -118.4559000  
3950000000    -8.7565380    163.4960000   8.8777480     80.6105300    -17.0639800   77.2271600    -32.3729600   -135.5543000  
3975000000    -8.5394350    160.7664000   8.8052810     77.9136900    -17.0403700   74.7196500    -30.7600800   -148.2736000  
4000000000    -8.3430960    157.9511000   8.7320410     75.1925700    -17.0153600   72.2445400    -29.2884500   -157.8324000  
4025000000    -8.1443100    155.2549000   8.6572770     72.5334700    -16.9948500   69.7336300    -27.9407200   -165.4274000  
4050000000    -7.9459690    152.6309000   8.5830990     69.8547400    -16.9766200   67.2215600    -26.7744000   -171.5885000  
4075000000    -7.7595330    150.0268000   8.5020470     67.2079000    -16.9627600   64.7456100    -25.6061600   -177.4377000  
4100000000    -7.5896420    147.4425000   8.4232470     64.5477900    -16.9509700   62.2499600    -24.5495200   177.7237000   
4125000000    -7.4089960    144.8591000   8.3412740     61.9077000    -16.9436400   59.7425600    -23.5893400   173.8256000   
4150000000    -7.2290110    142.1698000   8.2617440     59.2574500    -16.9420000   57.2550400    -22.6881500   170.1170000   
4175000000    -7.0629910    139.6239000   8.1815400     56.6042600    -16.9300600   54.8113300    -21.9244200   166.1339000   
4200000000    -6.8943950    137.0686000   8.1000320     53.9472000    -16.9296000   52.3338100    -21.1870200   162.5114000   
4225000000    -6.7404340    134.5211000   8.0184360     51.3010900    -16.9285200   49.8813500    -20.4725000   159.0720000   
4250000000    -6.5927980    131.9241000   7.9383080     48.6231000    -16.9241700   47.4129800    -19.8200900   155.9063000   
4275000000    -6.4495570    129.4920000   7.8500800     45.9915200    -16.9215300   44.9045400    -19.2065300   152.7999000   
4300000000    -6.3192050    127.0771000   7.7654000     43.3280400    -16.9293200   42.4614400    -18.6257500   149.7764000   
4325000000    -6.1922460    124.6439000   7.6745360     40.6830600    -16.9232100   40.0270800    -18.0937800   146.6696000   
4350000000    -6.0804240    122.2548000   7.5832530     38.0507300    -16.9251800   37.5571600    -17.5846100   143.7193000   
4375000000    -5.9619200    119.7707000   7.4900840     35.3820900    -16.9345000   35.0516800    -17.1015500   141.0522000   
4400000000    -5.8631760    117.4438000   7.3918570     32.7573600    -16.9439400   32.5972100    -16.6276900   138.2011000   
4425000000    -5.7713770    115.0725000   7.2922430     30.0992400    -16.9606000   30.0949000    -16.1924500   135.4470000   
4450000000    -5.6795190    112.8121000   7.1824180     27.5319100    -16.9808500   27.6329500    -15.7462600   132.5687000   
4475000000    -5.5954310    110.5911000   7.0784870     24.9213500    -17.0046100   25.1822500    -15.3548300   129.7785000   
4500000000    -5.5262530    108.5064000   6.9659090     22.3495900    -17.0354100   22.7353100    -14.9617300   127.0254000   
4525000000    -5.4689490    106.4473000   6.8510190     19.8435400    -17.0694200   20.3357300    -14.5845800   124.2284000   
4550000000    -5.4046340    104.5282000   6.7329500     17.3515300    -17.1096100   17.9611100    -14.2229800   121.4062000   
4575000000    -5.3360100    102.6858000   6.6167350     14.9479000    -17.1511700   15.6836700    -13.8792500   118.5350000   
4600000000    -5.2742260    101.0020000   6.5074710     12.5924200    -17.1893100   13.4387800    -13.5474000   115.7491000   
4625000000    -5.1887080    99.3808800    6.3991950     10.2841100    -17.2243500   11.2759200    -13.2401900   112.8775000   
4650000000    -5.0804270    97.7384900    6.3006110     7.9953350     -17.2528000   9.1411640     -12.9611500   110.0648000   
4675000000    -4.9463460    96.0791900    6.2109860     5.7556940     -17.2757700   7.0584890     -12.6964600   107.2199000   
4700000000    -4.8126590    94.3465000    6.1369040     3.4855900     -17.2767300   4.9486460     -12.4598300   104.4295000   
4725000000    -4.6568680    92.6231900    6.0621490     1.1553610     -17.2754400   2.8249340     -12.2315800   101.6831000   
4750000000    -4.5091010    90.6517400    5.9927580     -1.1888580    -17.2708100   0.6401089     -12.0099500   99.0630800    
4775000000    -4.3694020    88.6830100    5.9258580     -3.6119950    -17.2616800   -1.5914680    -11.8044500   96.5304600    
4800000000    -4.2363690    86.5344100    5.8553560     -6.0158720    -17.2545600   -3.8471460    -11.6155600   94.0116300    
4825000000    -4.1163120    84.4167100    5.7857930     -8.4515300    -17.2482400   -6.1252340    -11.4310800   91.4872500    
4850000000    -4.0005180    82.2839900    5.7172170     -10.9035900   -17.2469200   -8.4450910    -11.2472100   89.0255100    
4875000000    -3.9037370    80.0505800    5.6409920     -13.3708700   -17.2489400   -10.7791600   -11.0601000   86.7103700    
4900000000    -3.8126630    77.8587300    5.5641280     -15.8433800   -17.2507200   -13.0691700   -10.8951800   84.4424100    
4925000000    -3.7237750    75.6883100    5.4839130     -18.3267600   -17.2548600   -15.4302600   -10.7495400   82.0845300    
4950000000    -3.6443130    73.5779500    5.4045360     -20.7894700   -17.2637700   -17.7502600   -10.6024000   79.5963700    
4975000000    -3.5721210    71.4620100    5.3201450     -23.2332800   -17.2724500   -20.0742000   -10.4443900   77.1234700    
5000000000    -3.5035510    69.3026500    5.2387870     -25.7115700   -17.2861600   -22.4174700   -10.2889200   74.7902900    
5025000000    -3.4401320    67.1914300    5.1562290     -28.1365100   -17.3004200   -24.7300800   -10.1476700   72.4843800    
5050000000    -3.3818240    65.1186900    5.0750160     -30.5915800   -17.3135700   -27.0467500   -10.0250200   70.0776200    
5075000000    -3.3273240    63.0689200    4.9895540     -33.0310500   -17.3283300   -29.3656600   -9.8913680    67.5888500    
5100000000    -3.2824680    60.9430600    4.9047120     -35.4822600   -17.3428700   -31.6815200   -9.7463330    65.2201700    
5125000000    -3.2320670    58.7789600    4.8191680     -37.9109200   -17.3631600   -33.9781800   -9.6049470    63.0496900    
5150000000    -3.1857870    56.6526300    4.7320440     -40.3499200   -17.3891300   -36.2783100   -9.4890220    60.9489100    
5175000000    -3.1482760    54.6143700    4.6440210     -42.7565100   -17.4081800   -38.5714000   -9.4008280    58.6963600    
5200000000    -3.1090450    52.6024800    4.5617390     -45.1370500   -17.4258700   -40.8255300   -9.3010220    56.3037300    
5225000000    -3.0780580    50.5927600    4.4719960     -47.5637200   -17.4499900   -43.1064500   -9.1925940    53.9369600    
5250000000    -3.0448960    48.5310400    4.3876950     -49.9547600   -17.4711900   -45.3714300   -9.0871490    51.7283200    
5275000000    -3.0144180    46.5018400    4.2985970     -52.3389400   -17.4985400   -47.6218900   -9.0006580    49.5608100    
5300000000    -3.0007260    44.5854300    4.2147330     -54.7296500   -17.5177300   -49.8660300   -8.9276790    47.2592900    
5325000000    -2.9811480    42.6564900    4.1343870     -57.1179700   -17.5364500   -52.1047900   -8.8532070    44.8988200    
5350000000    -2.9693610    40.5779600    4.0506740     -59.5275500   -17.5522100   -54.3813600   -8.7637970    42.6177600    
5375000000    -2.9571730    38.4884800    3.9639410     -61.9353300   -17.5772500   -56.6709700   -8.6834520    40.4385400    
5400000000    -2.9428410    36.4417900    3.8752960     -64.3339500   -17.6065600   -58.9134500   -8.6135830    38.2405700    
5425000000    -2.9349840    34.5198300    3.7853220     -66.7400000   -17.6332300   -61.1811400   -8.5503120    35.9586400    
5450000000    -2.9343950    32.5934900    3.7009040     -69.1359200   -17.6608000   -63.4195600   -8.4790560    33.6805000    
5475000000    -2.9480320    30.6135700    3.6093790     -71.5175800   -17.6892800   -65.6758500   -8.4030910    31.5525700    
5500000000    -2.9608760    28.5995100    3.5196850     -73.9154900   -17.7169600   -67.9226600   -8.3434310    29.5293700    
5525000000    -2.9817680    26.6095800    3.4245520     -76.2895100   -17.7532800   -70.1588100   -8.2969590    27.4593200    
5550000000    -3.0083190    24.7618000    3.3289160     -78.6883500   -17.7865000   -72.4309000   -8.2599510    25.2986800    
5575000000    -3.0476740    22.9561600    3.2358410     -81.0397000   -17.8236600   -74.6388900   -8.2173020    23.1319200    
5600000000    -3.1016280    21.0211800    3.1377510     -83.4599500   -17.8612400   -76.8891300   -8.1788580    21.1283500    
5625000000    -3.1641360    19.0748800    3.0372310     -85.8816900   -17.9095600   -79.1461900   -8.1560470    19.2013200    
5650000000    -3.2235750    17.2467300    2.9241140     -88.3063500   -17.9584000   -81.4026600   -8.1468660    17.1274500    
5675000000    -3.2958470    15.5616600    2.8037310     -90.6913500   -18.0243200   -83.6326700   -8.1334640    14.9370900    
5700000000    -3.3742150    14.0318200    2.6713070     -93.0225200   -18.0995600   -85.7637200   -8.0952560    12.8137100    
5725000000    -3.4588370    12.6250100    2.5290270     -95.3073700   -18.1829100   -87.8568500   -8.0548480    10.9711100    
5750000000    -3.5354770    11.3539800    2.3824620     -97.4369100   -18.2718900   -89.8389400   -8.0255580    9.3866170     
5775000000    -3.6010350    10.2510500    2.2212670     -99.4673000   -18.3689600   -91.6531800   -7.9949770    7.8843850     
5800000000    -3.6398990    9.3333970     2.0664750     -101.2588000  -18.4674300   -93.2634900   -7.9248000    6.2705160     
5825000000    -3.6548940    8.5038410     1.9236980     -102.8520000  -18.5422100   -94.6390200   -7.7982620    4.4945640     
5850000000    -3.6395540    7.6060600     1.8218730     -104.2244000  -18.5793100   -95.8477200   -7.6412240    2.4844190     
5875000000    -3.6011520    6.5570800     1.7643840     -105.6275000  -18.5648400   -97.0707100   -7.5070220    0.2065556     
5900000000    -3.5369510    5.3770790     1.7457160     -107.1261000  -18.5180200   -98.4450400   -7.4203640    -2.3245090    
5925000000    -3.4448930    4.0639210     1.7431760     -108.8591000  -18.4535100   -99.9959300   -7.3765110    -5.0161600    
5950000000    -3.3482870    2.6628410     1.7455240     -110.6996000  -18.3860100   -101.7143000  -7.3441370    -7.6789020    
5975000000    -3.2499450    1.1767670     1.7470690     -112.6281000  -18.3188000   -103.5103000  -7.3203130    -10.2120100   
6000000000    -3.1666690    -0.4249782    1.7549780     -114.6027000  -18.2497200   -105.4030000  -7.3122000    -12.5437700   
6025000000    -3.0957920    -2.2384360    1.7622000     -116.6932000  -18.1807200   -107.3580000  -7.3212970    -14.7507600   
6050000000    -3.0320250    -4.1282350    1.7617580     -118.8926000  -18.1182500   -109.3965000  -7.3409370    -16.9366500   
6075000000    -2.9809180    -6.1084070    1.7656950     -121.0903000  -18.0619100   -111.4957000  -7.3554150    -19.1590800   
6100000000    -2.9330220    -8.1548900    1.7553560     -123.3957000  -18.0155100   -113.6320000  -7.3658300    -21.3462200   
6125000000    -2.9019880    -10.2132000   1.7470020     -125.6453000  -17.9680600   -115.7650000  -7.3768570    -23.4698900   
6150000000    -2.8778900    -12.3110600   1.7306830     -127.9801000  -17.9296500   -117.9278000  -7.3901810    -25.5593300   
6175000000    -2.8637610    -14.3482000   1.7096810     -130.2773000  -17.8890600   -120.0636000  -7.4087380    -27.6718800   
6200000000    -2.8633390    -16.3581800   1.6863150     -132.6106000  -17.8508700   -122.2344000  -7.4258110    -29.8442700   
6225000000    -2.8634800    -18.3291900   1.6724140     -134.9560000  -17.8141600   -124.4189000  -7.4366200    -32.0132300   
6250000000    -2.8865900    -20.3735800   1.6450100     -137.2996000  -17.7767900   -126.5921000  -7.4429010    -34.1389800   
6275000000    -2.9143170    -22.4610100   1.6192670     -139.6184000  -17.7438200   -128.7656000  -7.4488950    -36.1644800   
6300000000    -2.9349890    -24.5007100   1.5881950     -141.9631000  -17.7103900   -130.9449000  -7.4634170    -38.1658600   
6325000000    -2.9713140    -26.4541000   1.5624490     -144.2825000  -17.6759300   -133.1327000  -7.4895850    -40.2374800   
6350000000    -3.0121770    -28.4778100   1.5347160     -146.6348000  -17.6448900   -135.3477000  -7.5096690    -42.3808300   
6375000000    -3.0490520    -30.4934500   1.5030380     -149.0037000  -17.6147800   -137.5525000  -7.5221610    -44.5135000   
6400000000    -3.0885730    -32.5181800   1.4714880     -151.3711000  -17.5843100   -139.7464000  -7.5298220    -46.5577500   
6425000000    -3.1338730    -34.4116800   1.4417470     -153.6582000  -17.5533600   -141.8927000  -7.5524310    -48.6003000   
6450000000    -3.1853960    -36.2496500   1.4176860     -155.9863000  -17.5131000   -144.0887000  -7.5858650    -50.6751200   
6475000000    -3.2337210    -38.1855500   1.3970470     -158.3712000  -17.4730100   -146.3359000  -7.6141290    -52.8534300   
6500000000    -3.2962140    -40.2225100   1.3709470     -160.8164000  -17.4328300   -148.6158000  -7.6242100    -55.0205500   
6525000000    -3.3492650    -42.3351200   1.3451870     -163.2632000  -17.3988200   -150.9144000  -7.6273560    -57.0098700   
6550000000    -3.4277480    -44.3676700   1.3157240     -165.6697000  -17.3672900   -153.1994000  -7.6456770    -58.9297300   
6575000000    -3.5135900    -46.4186900   1.2777870     -168.1164000  -17.3415800   -155.5018000  -7.6773410    -60.8838200   
6600000000    -3.6085570    -48.4472700   1.2454820     -170.5788000  -17.3124000   -157.8804000  -7.7120000    -62.9422300   
6625000000    -3.7176690    -50.4679600   1.1972520     -173.0883000  -17.2978500   -160.2191000  -7.7320800    -65.0808300   
6650000000    -3.8350710    -52.3293600   1.1481830     -175.5117000  -17.2823500   -162.5386000  -7.7509880    -67.1457000   
6675000000    -3.9674190    -54.1401300   1.0936700     -177.9505000  -17.2760400   -164.8580000  -7.7724950    -69.1868600   
6700000000    -4.1140020    -55.8505600   1.0340570     179.6589000   -17.2683700   -167.1669000  -7.8074960    -71.2811300   
6725000000    -4.2659520    -57.4837800   0.9694402     177.2398000   -17.2714900   -169.4166000  -7.8342520    -73.4528400   
6750000000    -4.4099220    -58.9632500   0.9006643     174.9068000   -17.2779500   -171.6703000  -7.8471510    -75.6589700   
6775000000    -4.5419410    -60.2457700   0.8269253     172.6533000   -17.2852200   -173.7939000  -7.8638730    -77.8129900   
6800000000    -4.6692970    -61.3456500   0.7560272     170.5322000   -17.2920200   -175.8465000  -7.8906170    -79.9553100   
6825000000    -4.7663690    -62.3245600   0.6996334     168.4595000   -17.2934600   -177.8528000  -7.9284980    -82.1191100   
6850000000    -4.8314410    -63.2584400   0.6494851     166.4182000   -17.2835400   -179.8014000  -7.9657210    -84.3812900   
6875000000    -4.8531270    -64.2324800   0.6121907     164.4897000   -17.2604700   178.2970000   -8.0089590    -86.6573000   
6900000000    -4.8427880    -65.2285100   0.5949931     162.5618000   -17.2235700   176.4388000   -8.0524250    -88.9612000   
6925000000    -4.8078800    -66.3582800   0.5945435     160.6111000   -17.1722300   174.5704000   -8.1074600    -91.2531900   
6950000000    -4.7546530    -67.7179700   0.6079315     158.6469000   -17.1055500   172.6480000   -8.1653290    -93.5017200   
6975000000    -4.7014820    -69.4012600   0.6284866     156.5755000   -17.0238200   170.6983000   -8.2300450    -95.7259800   
7000000000    -4.6346130    -71.2548300   0.6690082     154.4377000   -16.9362100   168.6505000   -8.3018740    -97.9554700   
7025000000    -4.5685510    -73.3079600   0.7166187     152.1738000   -16.8367600   166.5042000   -8.3765670    -100.1990000  
7050000000    -4.5193090    -75.4965400   0.7615601     149.8535000   -16.7374100   164.3111000   -8.4465660    -102.4294000  
7075000000    -4.4904690    -77.8793900   0.8094602     147.4548000   -16.6353000   162.0209000   -8.5104540    -104.5961000  
7100000000    -4.4838330    -80.3671000   0.8577943     145.0233000   -16.5301300   159.6708000   -8.5849420    -106.6538000  
7125000000    -4.4871920    -82.9963200   0.9042312     142.4086000   -16.4331400   157.2362000   -8.6696570    -108.7076000  
7150000000    -4.5110510    -85.7212100   0.9432631     139.8397000   -16.3345800   154.7198000   -8.7552290    -110.8568000  
7175000000    -4.5429960    -88.4216300   0.9831057     137.1790000   -16.2407000   152.1777000   -8.8306470    -113.0476000  
7200000000    -4.5975640    -91.2167800   1.0156010     134.4742000   -16.1491100   149.5954000   -8.9012980    -115.1601000  
7225000000    -4.6698430    -94.0161000   1.0478700     131.7600000   -16.0607300   146.9707000   -8.9754760    -117.1760000  
7250000000    -4.7496630    -96.9589800   1.0754130     128.9134000   -15.9764800   144.2692000   -9.0498560    -119.1912000  
7275000000    -4.8603110    -99.8945800   1.0998610     126.1156000   -15.8992600   141.5413000   -9.1258100    -121.2632000  
7300000000    -4.9693690    -102.9652000  1.1100290     123.2501000   -15.8258000   138.7834000   -9.1878800    -123.2941000  
7325000000    -5.1114050    -105.9867000  1.1200180     120.3717000   -15.7596500   135.9798000   -9.2554950    -125.2629000  
7350000000    -5.2583300    -109.0666000  1.1270130     117.4768000   -15.6945100   133.1900000   -9.3307500    -127.2139000  
7375000000    -5.4233780    -112.2175000  1.1288310     114.5129000   -15.6359100   130.3114000   -9.4069460    -129.2487000  
7400000000    -5.6035130    -115.2990000  1.1273440     111.5669000   -15.5855300   127.4644000   -9.4732680    -131.3699000  
7425000000    -5.8000130    -118.4921000  1.1108950     108.6492000   -15.5389600   124.5885000   -9.5295230    -133.4412000  
7450000000    -6.0098230    -121.6896000  1.1002450     105.6382000   -15.4965800   121.6739000   -9.5787390    -135.4560000  
7475000000    -6.2405270    -125.0385000  1.0815420     102.6863000   -15.4608100   118.7770000   -9.6431990    -137.4375000  
7500000000    -6.4824740    -128.3100000  1.0629730     99.6721300    -15.4290600   115.8531000   -9.7036130    -139.5296000  
7525000000    -6.7353820    -131.7273000  1.0305120     96.6686000    -15.3997500   112.9080000   -9.7551880    -141.6620000  
7550000000    -6.9916010    -135.1943000  1.0013520     93.6721700    -15.3821600   109.9667000   -9.7946780    -143.7926000  
7575000000    -7.2786710    -138.6970000  0.9678683     90.6453700    -15.3600300   107.0223000   -9.8350580    -145.8796000  
7600000000    -7.5850670    -142.3441000  0.9310889     87.6144900    -15.3445700   104.0712000   -9.8784010    -147.9517000  
7625000000    -7.9049370    -146.1910000  0.8873402     84.5188300    -15.3366800   101.0786000   -9.9160890    -150.1133000  
7650000000    -8.2437620    -150.0631000  0.8384918     81.4709700    -15.3309000   98.0910400    -9.9470140    -152.2467000  
7675000000    -8.6232060    -154.0644000  0.7857553     78.3979500    -15.3318400   95.0645100    -9.9736850    -154.4057000  
7700000000    -9.0284570    -158.2436000  0.7228946     75.2831100    -15.3365400   92.0320700    -10.0067700   -156.5768000  
7725000000    -9.4759580    -162.7539000  0.6526428     72.1667700    -15.3545900   88.9984900    -10.0310900   -158.8227000  
7750000000    -9.9444290    -167.2303000  0.5759538     69.0688800    -15.3842200   85.9688000    -10.0508900   -161.1375000  
7775000000    -10.4535900   -171.8386000  0.4912398     65.9953900    -15.4139100   82.9401200    -10.0549900   -163.4706000  
7800000000    -11.0425500   -176.6049000  0.3939974     62.9343900    -15.4619600   79.9322500    -10.0653900   -165.8285000  
7825000000    -11.6793000   178.4369000   0.2866374     59.9153300    -15.5119700   76.9695400    -10.0765600   -168.2419000  
7850000000    -12.3254500   173.1896000   0.1715136     56.9269600    -15.5786600   74.0438200    -10.0892500   -170.7484000  
7875000000    -13.0163000   167.9548000   0.0468509     54.0179300    -15.6484100   71.2291800    -10.0958700   -173.3550000  
7900000000    -13.7694900   162.9240000   -0.0772891    51.1911100    -15.7251600   68.4415200    -10.0997900   -175.9718000  
7925000000    -14.6096600   157.6396000   -0.2018918    48.4601100    -15.8057700   65.7781500    -10.1140200   -178.5926000  
7950000000    -15.4837500   152.1069000   -0.3251381    45.8311500    -15.8796600   63.1785000    -10.1369500   178.6944000   
7975000000    -16.2931000   146.5168000   -0.4541261    43.2762100    -15.9551900   60.7287800    -10.1677900   175.8885000   
8000000000    -17.1083100   141.1841000   -0.5614687    40.7885000    -16.0187600   58.3240100    -10.1931500   173.0437000   
8025000000    -17.8668700   136.0875000   -0.6593030    38.4288200    -16.0655400   56.0082700    -10.2267600   170.2423000   
8050000000    -18.5626200   130.8242000   -0.7326729    36.0495400    -16.1000900   53.7275800    -10.2727200   167.4741000   
8075000000    -19.1222200   125.5750000   -0.7956578    33.6935800    -16.1112200   51.4650800    -10.3303900   164.7059000   
8100000000    -19.4749400   120.2154000   -0.8303660    31.3182900    -16.1058500   49.1584500    -10.3859600   161.9182000   
8125000000    -19.5673900   114.7681000   -0.8537069    28.8359800    -16.0824300   46.7989300    -10.4375200   159.1909000   
8150000000    -19.4936400   108.7056000   -0.8616443    26.2594200    -16.0437000   44.3395400    -10.4872000   156.5406000   
8175000000    -19.1943700   102.3309000   -0.8635467    23.5539200    -15.9976800   41.7664800    -10.5391100   153.9487000   
8200000000    -18.7158900   95.4085600    -0.8592228    20.7332200    -15.9443400   39.0466700    -10.5830200   151.3224000   
8225000000    -18.0538000   88.5058400    -0.8601436    17.7178600    -15.8932200   36.2156100    -10.6152600   148.7020000   
8250000000    -17.2962000   81.4373800    -0.8666628    14.6231700    -15.8468600   33.2403800    -10.6266500   146.0678000   
8275000000    -16.4975500   74.5899000    -0.8842285    11.4046100    -15.8078000   30.1722200    -10.6260500   143.4590000   
8300000000    -15.6988800   67.9495200    -0.9131102    8.0905820     -15.7825300   27.0010500    -10.6120500   140.8185000   
8325000000    -14.8994900   61.3832900    -0.9573438    4.7148120     -15.7658000   23.7829500    -10.5855900   138.1449000   
8350000000    -14.1425100   54.9503300    -1.0093460    1.3019960     -15.7645600   20.4689600    -10.5512400   135.4840000   
8375000000    -13.3809600   48.8145100    -1.0798310    -2.1755060    -15.7758000   17.1369200    -10.5101500   132.8060000   
8400000000    -12.6625700   43.0205600    -1.1722020    -5.6604660    -15.8034800   13.7737600    -10.4667200   129.9850000   
8425000000    -12.0085600   37.4351600    -1.2720790    -9.1719920    -15.8407900   10.3919500    -10.4167100   127.0689000   
8450000000    -11.3892400   31.9407300    -1.3908600    -12.7246500   -15.8972700   6.9797240     -10.3497300   124.0777000   
8475000000    -10.7898800   26.5830300    -1.5255450    -16.2143400   -15.9650600   3.5874370     -10.2776900   121.0503000   
8500000000    -10.2245600   21.5442100    -1.6757000    -19.6794800   -16.0453900   0.2184490     -10.2058300   117.9310000   
8525000000    -9.7059700    16.7703500    -1.8367460    -23.1494300   -16.1422100   -3.1316750    -10.1267200   114.6721000   
8550000000    -9.2288960    12.1786900    -2.0108020    -26.5671300   -16.2477000   -6.4570270    -10.0427400   111.3337000   
8575000000    -8.7994470    7.7341610     -2.2021020    -29.9230800   -16.3653900   -9.7283050    -9.9518090    108.0255000   
8600000000    -8.3941320    3.3792390     -2.3985840    -33.2484500   -16.4900000   -12.9545100   -9.8680260    104.7138000   
8625000000    -8.0124600    -0.8372765    -2.6059710    -36.4946100   -16.6267900   -16.1520000   -9.7956490    101.3092000   
8650000000    -7.6786130    -4.8838620    -2.8195850    -39.6891200   -16.7681000   -19.2877700   -9.7221790    97.8037000    
8675000000    -7.3529610    -8.8235200    -3.0448790    -42.8599200   -16.9184300   -22.3658200   -9.6411590    94.2378900    
8700000000    -7.0590670    -12.7210500   -3.2803530    -45.9122100   -17.0719400   -25.4268400   -9.5588440    90.6991000    
8725000000    -6.7736850    -16.4517200   -3.5191480    -48.9189400   -17.2366400   -28.3993900   -9.4860800    87.1616900    
8750000000    -6.5149460    -20.1101600   -3.7646120    -51.8568800   -17.3992800   -31.3219200   -9.4117570    83.5495400    
8775000000    -6.2768300    -23.5933400   -4.0186090    -54.6820400   -17.5707100   -34.1760100   -9.3375370    79.8885700    
8800000000    -6.0618470    -26.9797700   -4.2800560    -57.4615500   -17.7516100   -36.9734600   -9.2551620    76.2418000    
8825000000    -5.8608440    -30.3417800   -4.5380010    -60.1726200   -17.9270700   -39.7279900   -9.1746390    72.6220900    
8850000000    -5.6736350    -33.6355100   -4.7987240    -62.7632200   -18.1130600   -42.3742600   -9.0987370    69.0253300    
8875000000    -5.5005070    -36.7805200   -5.0681710    -65.3017300   -18.2960200   -44.9756500   -9.0280970    65.4344300    
8900000000    -5.3482170    -39.8861200   -5.3332430    -67.6878700   -18.4859900   -47.4795700   -8.9556840    61.8073500    
8925000000    -5.2170100    -42.8959400   -5.6070570    -69.9580600   -18.6731800   -49.9063300   -8.8815790    58.1828400    
8950000000    -5.1012460    -45.8873400   -5.8694750    -72.1888500   -18.8550600   -52.2521500   -8.8072310    54.5723500    
8975000000    -4.9917980    -48.8093400   -6.1319440    -74.2813900   -19.0447600   -54.5072800   -8.7373680    51.0076600    
9000000000    -4.8964330    -51.6842800   -6.3885430    -76.2284400   -19.2244100   -56.6328800   -8.6703670    47.4109200    
9025000000    -4.8204860    -54.4322500   -6.6243130    -78.0781600   -19.3904200   -58.7101700   -8.5996510    43.8092400    
9050000000    -4.7580620    -57.1364800   -6.8549200    -79.7747300   -19.5570900   -60.6497100   -8.5251350    40.2565700    
9075000000    -4.7086300    -59.6994300   -7.0574960    -81.3784400   -19.6989100   -62.4961500   -8.4463600    36.8053200    
9100000000    -4.6768570    -62.0956400   -7.2445880    -82.9194900   -19.8302200   -64.2668200   -8.3810900    33.4322700    
9125000000    -4.6587470    -64.4157300   -7.4011400    -84.3681900   -19.9412200   -65.9695700   -8.3242190    30.0677200    
9150000000    -4.6552500    -66.6482500   -7.5282390    -85.8442000   -20.0189900   -67.6700800   -8.2670620    26.6800500    
9175000000    -4.6602200    -68.7904100   -7.6244270    -87.3581500   -20.0807200   -69.3610100   -8.1994020    23.3224700    
9200000000    -4.6627180    -70.7975200   -7.7013240    -88.9500100   -20.1115200   -71.0735200   -8.1222790    20.0889700    
9225000000    -4.6629830    -72.6450900   -7.7385300    -90.7066900   -20.1222400   -72.9134100   -8.0499450    16.9594900    
9250000000    -4.6627890    -74.2636900   -7.7734060    -92.5554200   -20.1125200   -74.8355100   -7.9812860    13.9033600    
9275000000    -4.6474610    -75.7721600   -7.7820500    -94.6666900   -20.0839500   -76.9161900   -7.9065520    10.8749100    
9300000000    -4.6273430    -77.1488300   -7.7874880    -96.9863100   -20.0475300   -79.1925800   -7.8262210    7.9149440     
9325000000    -4.5811160    -78.3922300   -7.7975430    -99.4997900   -20.0007000   -81.5925900   -7.7391410    5.0067010     
9350000000    -4.5272550    -79.5938600   -7.8195390    -102.1841000  -19.9589000   -84.2401600   -7.6411660    2.0780460     
9375000000    -4.4541860    -80.7875500   -7.8548620    -105.0717000  -19.9278600   -86.9945400   -7.5369590    -0.8510276    
9400000000    -4.3643550    -82.0272100   -7.9068040    -108.1235000  -19.9120500   -89.9550100   -7.4206850    -3.7490370    
9425000000    -4.2538150    -83.3608500   -7.9912300    -111.1980000  -19.9140000   -93.0048300   -7.2986040    -6.5995860    
9450000000    -4.1272700    -84.7157800   -8.1028080    -114.4028000  -19.9262500   -96.0720100   -7.1756470    -9.4338600    
9475000000    -4.0035910    -86.1868900   -8.2344200    -117.5803000  -19.9673600   -99.2468500   -7.0529970    -12.3208800   
9500000000    -3.8738830    -87.7491800   -8.3773450    -120.7510000  -20.0195000   -102.3980000  -6.9258700    -15.2452700   
9525000000    -3.7408010    -89.3253200   -8.5713270    -123.8735000  -20.0931500   -105.5589000  -6.7924950    -18.1985700   
9550000000    -3.6061960    -91.0177700   -8.7517370    -126.9310000  -20.1796600   -108.6954000  -6.6582660    -21.1071900   
9575000000    -3.4823120    -92.6557500   -8.9627950    -129.9014000  -20.2790600   -111.8088000  -6.5252400    -24.0095400   
9600000000    -3.3717570    -94.4180600   -9.1879760    -132.8259000  -20.3879000   -114.8382000  -6.3971090    -26.9084600   
9625000000    -3.2598370    -96.2573000   -9.4177740    -135.7891000  -20.5023900   -117.9030000  -6.2706880    -29.8400700   
9650000000    -3.1553980    -98.1550800   -9.6688000    -138.5664000  -20.6318300   -120.8484000  -6.1480690    -32.7690700   
9675000000    -3.0528380    -99.9173100   -9.9179690    -141.1712000  -20.7640900   -123.7598000  -6.0263640    -35.6870000   
9700000000    -2.9634040    -101.7711000  -10.1776200   -143.7870000  -20.8988900   -126.6341000  -5.9009100    -38.6149300   
9725000000    -2.8938330    -103.6909000  -10.4364000   -146.3935000  -21.0340500   -129.4747000  -5.7765530    -41.5000900   
9750000000    -2.8153820    -105.5895000  -10.7090500   -148.6846000  -21.1822500   -132.2069000  -5.6599490    -44.3129800   
9775000000    -2.7418860    -107.4944000  -10.9717300   -151.0677000  -21.3264900   -134.9222000  -5.5463650    -47.1024500   
9800000000    -2.6826700    -109.3245000  -11.2404200   -153.2900000  -21.4695100   -137.5707000  -5.4406120    -49.8970600   
9825000000    -2.6239140    -111.1676000  -11.5154300   -155.4537000  -21.6143100   -140.1315000  -5.3336030    -52.6785700   
9850000000    -2.5677460    -112.9740000  -11.7751400   -157.3922000  -21.7528000   -142.6890000  -5.2257680    -55.4703400   
9875000000    -2.5229360    -114.8235000  -12.0502900   -159.4304000  -21.8906200   -145.2199000  -5.1282760    -58.2314500   
9900000000    -2.4856800    -116.6499000  -12.3098600   -161.2863000  -22.0280800   -147.7026000  -5.0315800    -60.9707700   
9925000000    -2.4410330    -118.4546000  -12.5665800   -163.1410000  -22.1660200   -150.1087000  -4.9409310    -63.7105000   
9950000000    -2.4070210    -120.2682000  -12.8067400   -164.8840000  -22.2869900   -152.4806000  -4.8444440    -66.4558400   
9975000000    -2.3886580    -122.0560000  -13.0565500   -166.3984000  -22.4226500   -154.8112000  -4.7499550    -69.1616200   
10000000000   -2.3554690    -123.8465000  -13.2933000   -167.9979000  -22.5402500   -157.0923000  -4.6572080    -71.7943400   
10025000000   -2.3357600    -125.5610000  -13.5160300   -169.5083000  -22.6507400   -159.3025000  -4.5707480    -74.3835800   
10050000000   -2.3204440    -127.3280000  -13.7096100   -170.8100000  -22.7584500   -161.4940000  -4.4892480    -76.9813000   
10075000000   -2.3104790    -128.9706000  -13.9007600   -172.2201000  -22.8474800   -163.6622000  -4.4127630    -79.6122700   
10100000000   -2.3044040    -130.6314000  -14.0610800   -173.5004000  -22.9300900   -165.7970000  -4.3319160    -82.2405800   
10125000000   -2.3007930    -132.2605000  -14.2123700   -174.7198000  -23.0045900   -167.9025000  -4.2514270    -84.8307100   
10150000000   -2.3032670    -133.8870000  -14.3337500   -176.1113000  -23.0639600   -169.9530000  -4.1723040    -87.3667800   
10175000000   -2.3027590    -135.4800000  -14.4536000   -177.3890000  -23.1104100   -172.0234000  -4.0942750    -89.8785800   
10200000000   -2.2984670    -136.9136000  -14.5336600   -178.7453000  -23.1263500   -174.0716000  -4.0178120    -92.3568800   
10225000000   -2.3085480    -138.4219000  -14.6029700   179.7617000   -23.1405100   -176.1988000  -3.9410950    -94.8288900   
10250000000   -2.3110030    -139.8484000  -14.6487100   178.1444000   -23.1315700   -178.3820000  -3.8695350    -97.2704300   
10275000000   -2.3225060    -141.3279000  -14.6753300   176.5390000   -23.1028900   179.3645000   -3.7936450    -99.7472200   
10300000000   -2.3157580    -142.6866000  -14.7232200   174.5789000   -23.0713600   177.0210000   -3.7231780    -102.2032000  
10325000000   -2.3114750    -144.0259000  -14.7599100   172.5545000   -23.0249400   174.6191000   -3.6477540    -104.6318000  
10350000000   -2.3008350    -145.2968000  -14.8181500   170.3842000   -22.9732000   172.1309000   -3.5743500    -107.0274000  
10375000000   -2.2918320    -146.6104000  -14.8517700   168.0850000   -22.9101900   169.5097000   -3.4946480    -109.4130000  
10400000000   -2.2682810    -147.9783000  -14.9279100   165.6709000   -22.8393300   166.7367000   -3.4180260    -111.8322000  
10425000000   -2.2520120    -149.2790000  -15.0020300   163.2863000   -22.7780600   163.9373000   -3.3453760    -114.1915000  
10450000000   -2.2216610    -150.5511000  -15.0949300   160.8062000   -22.7138700   161.0788000   -3.2734790    -116.5048000  
10475000000   -2.1921240    -151.8246000  -15.2024700   158.3236000   -22.6547800   158.1338000   -3.2112810    -118.8175000  
10500000000   -2.1645500    -153.2327000  -15.3281300   155.8396000   -22.5912900   155.0889000   -3.1450480    -121.2099000  
10525000000   -2.1299470    -154.5976000  -15.4643500   153.3237000   -22.5189700   152.0321000   -3.0800330    -123.6215000  
10550000000   -2.0974480    -156.0408000  -15.6263000   151.0129000   -22.4630600   148.8924000   -3.0186790    -125.9965000  
10575000000   -2.0655260    -157.4184000  -15.7838300   148.7827000   -22.4049500   145.7634000   -2.9680170    -128.3394000  
10600000000   -2.0324230    -158.8399000  -15.9356200   146.5420000   -22.3359900   142.5763000   -2.9154010    -130.7142000  
10625000000   -2.0147140    -160.3155000  -16.0951200   144.2779000   -22.2719500   139.3610000   -2.8713360    -133.1406000  
10650000000   -1.9877490    -161.8438000  -16.2700100   142.2046000   -22.2051800   136.0862000   -2.8269870    -135.5427000  
10675000000   -1.9640050    -163.3426000  -16.4106800   140.2826000   -22.1383100   132.8461000   -2.7880320    -137.8426000  
10700000000   -1.9439410    -164.8099000  -16.5748900   138.3066000   -22.0629500   129.6167000   -2.7549810    -140.0681000  
10725000000   -1.9318040    -166.2329000  -16.7018200   136.5038000   -21.9803200   126.3268000   -2.7291440    -142.3055000  
10750000000   -1.9253420    -167.7145000  -16.8375500   134.7401000   -21.8829100   123.0123000   -2.7107120    -144.5224000  
10775000000   -1.9196110    -169.1996000  -16.9162500   133.0424000   -21.7719300   119.6970000   -2.6796300    -146.6971000  
10800000000   -1.9167890    -170.7592000  -17.0098400   131.2826000   -21.6494600   116.2664000   -2.6495800    -148.8045000  
10825000000   -1.9210510    -172.2570000  -17.0790900   129.5695000   -21.5194200   112.8183000   -2.6069030    -150.8659000  
10850000000   -1.9322210    -173.7321000  -17.0957500   127.8584000   -21.3736200   109.3580000   -2.5588240    -152.8943000  
10875000000   -1.9486350    -175.2538000  -17.0988800   126.0981000   -21.2005200   105.8145000   -2.4949200    -154.9360000  
10900000000   -1.9705030    -176.7088000  -17.0711600   124.0592000   -21.0018200   102.1215000   -2.4160220    -157.0654000  
10925000000   -1.9940460    -178.1680000  -17.0183100   121.8420000   -20.7889800   98.2534900    -2.3283760    -159.3382000  
10950000000   -2.0250000    -179.5391000  -16.9256400   119.4648000   -20.5613900   94.1841300    -2.2378820    -161.7082000  
10975000000   -2.0587910    179.1203000   -16.8445900   116.8163000   -20.3188300   89.9480700    -2.1485400    -164.1637000  
11000000000   -2.0957470    177.7928000   -16.7430000   113.7838000   -20.0677300   85.4277300    -2.0704490    -166.7153000  
11025000000   -2.1481290    176.5489000   -16.6392700   110.5529000   -19.8121600   80.7222100    -2.0036110    -169.4296000  
11050000000   -2.1868820    175.2276000   -16.5340200   106.7201000   -19.5509300   75.6216300    -1.9563770    -172.3344000  
11075000000   -2.2317860    174.0687000   -16.4710400   102.8690000   -19.3091300   70.3910400    -1.9304690    -175.3340000  
11100000000   -2.2705340    172.9484000   -16.4028200   98.5525800    -19.0771200   64.8940600    -1.9237600    -178.3391000  
11125000000   -2.3053760    171.9950000   -16.3668000   93.8005800    -18.8496900   59.1860100    -1.9495050    178.6087000   
11150000000   -2.3461020    171.0690000   -16.3833300   88.8740200    -18.6380600   53.2437800    -2.0091290    175.4112000   
11175000000   -2.3885700    170.1217000   -16.4417600   83.5400300    -18.4535600   47.0025700    -2.1141990    172.1068000   
11200000000   -2.4117020    169.0850000   -16.5424600   77.9384000    -18.2930600   40.5810000    -2.2516950    168.8490000   
11225000000   -2.4166580    168.1897000   -16.7206700   72.1127500    -18.1574300   34.0084700    -2.4359570    165.6944000   
11250000000   -2.4131650    167.3849000   -16.9912300   66.0589900    -18.0532700   27.2785000    -2.6801890    162.6858000   
11275000000   -2.4116140    166.5784000   -17.3220200   59.9099200    -17.9713300   20.3460600    -2.9884310    159.8119000   
11300000000   -2.4090810    165.7208000   -17.7411700   53.4379400    -17.9152100   13.1903100    -3.3668260    157.1723000   
11325000000   -2.3854980    164.6621000   -18.2841200   46.8800300    -17.9141200   5.7680250     -3.8137760    155.0303000   
11350000000   -2.3459730    163.6220000   -18.9814100   40.2486200    -17.9616500   -1.8357870    -4.3206220    153.6464000   
11375000000   -2.3077190    162.6559000   -19.8897900   34.2838000    -18.0828800   -9.5838440    -4.8765180    153.3739000   
11400000000   -2.2715670    161.6267000   -21.0057300   29.2521600    -18.2901200   -17.4805500   -5.3942500    154.4039000   
11425000000   -2.2420520    160.3984000   -22.3313900   26.0912200    -18.6125400   -25.3840400   -5.7646950    156.7841000   
11450000000   -2.2246890    159.0136000   -23.6675900   26.5044400    -19.0709200   -32.8791900   -5.8579490    159.8649000   
11475000000   -2.2107190    157.6163000   -24.6520400   30.6379000    -19.6333100   -39.4792700   -5.6679750    162.5592000   
11500000000   -2.2323340    156.2421000   -24.8047500   35.5123500    -20.2388600   -44.9242600   -5.3122300    164.0477000   
11525000000   -2.2896270    154.9692000   -24.3392100   38.0824000    -20.7831000   -49.1420200   -4.9108110    164.1478000   
11550000000   -2.3664170    153.7899000   -23.5939400   36.1135300    -21.1918700   -52.4930400   -4.5573070    163.2024000   
11575000000   -2.4536170    152.8385000   -22.9444200   30.5813400    -21.3969000   -55.5498200   -4.2716000    161.7230000   
11600000000   -2.5609240    152.2633000   -22.5549400   22.2769300    -21.4309700   -59.1392700   -4.0491850    160.1288000   
11625000000   -2.6401340    152.0894000   -22.4663100   11.7130900    -21.3548300   -63.8389400   -3.8740240    158.5566000   
11650000000   -2.6438310    152.3484000   -22.7399100   -0.1246112    -21.2779900   -69.9109000   -3.7180860    157.0202000   
11675000000   -2.5469940    152.6438000   -23.4768300   -12.9218600   -21.3327500   -77.0727700   -3.5681760    155.3670000   
11700000000   -2.3847430    152.5746000   -24.6819300   -25.2148300   -21.5983000   -84.6488000   -3.4117570    153.6094000   
11725000000   -2.1893600    151.9188000   -26.2617700   -36.7400400   -22.0453700   -91.8532800   -3.2661610    151.7593000   
11750000000   -2.0035950    150.6983000   -28.1906300   -46.9832400   -22.6092300   -98.3573000   -3.1407350    149.8434000   
11775000000   -1.8569310    149.1831000   -30.3138000   -55.2920300   -23.2398800   -103.9505000  -3.0430170    147.8435000   
11800000000   -1.7335090    147.6967000   -32.4299500   -62.6689700   -23.8616300   -108.7630000  -2.9635200    145.7573000   
11825000000   -1.6467210    146.1566000   -34.7830200   -69.6822500   -24.4821100   -113.0048000  -2.9026920    143.6901000   
11850000000   -1.5890690    144.6156000   -37.5099600   -77.7455600   -25.0673100   -116.6865000  -2.8549950    141.7349000   
11875000000   -1.5359370    142.9865000   -40.1280600   -83.7933000   -25.6232300   -120.0308000  -2.8282420    139.8714000   
11900000000   -1.4929030    141.5102000   -43.4277700   -93.0959200   -26.1362100   -123.0020000  -2.8082780    137.9877000   
11925000000   -1.4567590    140.0554000   -46.4054100   -111.9714000  -26.6125900   -125.7127000  -2.7889750    136.0814000   
11950000000   -1.4458040    138.6132000   -50.0378600   -134.3084000  -27.0715300   -128.2251000  -2.7692670    134.2231000   
11975000000   -1.4267270    137.1976000   -51.2788200   -165.2835000  -27.4761000   -130.4804000  -2.7539560    132.5356000   
12000000000   -1.4059580    135.7379000   -50.3930000   166.0376000   -27.8483100   -132.5263000  -2.7511640    130.8952000   
12025000000   -1.3834100    134.3540000   -48.9222800   146.0223000   -28.1782800   -134.6093000  -2.7504770    129.1915000   
12050000000   -1.3690740    133.0620000   -47.2806000   143.7758000   -28.4709000   -136.5098000  -2.7455830    127.4356000   
12075000000   -1.3702680    131.7950000   -45.1740200   136.5006000   -28.7338900   -138.4123000  -2.7327550    125.7062000   
12100000000   -1.3648190    130.4925000   -44.3071700   135.8143000   -28.9583800   -140.3541000  -2.7251000    124.0684000   
12125000000   -1.3657280    129.1268000   -43.2527800   134.0038000   -29.1649500   -142.1927000  -2.7180520    122.5016000   
12150000000   -1.3572910    127.8376000   -42.3529400   132.8743000   -29.3317400   -144.1203000  -2.7114330    120.8717000   
12175000000   -1.3559870    126.4129000   -41.4939100   130.8962000   -29.4874600   -146.2219000  -2.7025660    119.2034000   
12200000000   -1.3496360    125.1928000   -40.8108800   130.1014000   -29.6258700   -148.1628000  -2.6893660    117.5704000   
12225000000   -1.3383620    123.9976000   -40.2429900   131.1685000   -29.7495800   -150.2220000  -2.6746840    115.9929000   
12250000000   -1.3432300    122.7159000   -39.5067300   130.0268000   -29.8742400   -152.3359000  -2.6596280    114.4593000   
12275000000   -1.3382260    121.5051000   -38.7957800   127.3311000   -29.9731200   -154.4669000  -2.6476670    112.9137000   
12300000000   -1.3354900    120.2830000   -38.3681400   126.6809000   -30.0708100   -156.6085000  -2.6344120    111.3343000   
12325000000   -1.3342860    119.0104000   -37.6869500   126.1461000   -30.1593300   -158.8487000  -2.6174880    109.7082000   
12350000000   -1.3335990    117.7504000   -37.3584100   124.4997000   -30.2548000   -161.0962000  -2.5965740    108.0633000   
12375000000   -1.3288410    116.5110000   -37.0520900   123.2083000   -30.3371800   -163.2866000  -2.5766690    106.4335000   
12400000000   -1.3301220    115.2199000   -36.4331700   122.4644000   -30.4250400   -165.4730000  -2.5586350    104.8096000   
12425000000   -1.3276900    114.0389000   -36.3806700   121.3234000   -30.5057800   -167.5934000  -2.5398910    103.1260000   
12450000000   -1.3218210    112.8376000   -36.0113600   119.7578000   -30.5801300   -169.7787000  -2.5181820    101.4173000   
12475000000   -1.3262460    111.6520000   -35.6304900   119.9926000   -30.6512300   -171.8231000  -2.4948410    99.7193800    
12500000000   -1.3307620    110.4005000   -35.4120600   119.6465000   -30.7192600   -173.9965000  -2.4760710    98.0588900    
12525000000   -1.3290050    109.1815000   -35.1128400   120.0081000   -30.7739600   -176.0283000  -2.4620300    96.3878200    
12550000000   -1.3313220    107.9798000   -34.8363000   118.8045000   -30.8213600   -177.9886000  -2.4564680    94.7147500    
12575000000   -1.3231790    106.7401000   -34.5577500   119.2113000   -30.8577500   179.9522000   -2.4450250    92.9483800    
12600000000   -1.3249030    105.4900000   -34.2783400   118.8849000   -30.8834200   177.9137000   -2.4363120    91.1143000    
12625000000   -1.3240810    104.2594000   -33.7755400   118.2653000   -30.9133100   175.8272000   -2.4294530    89.2932000    
12650000000   -1.3358970    103.0889000   -33.4551200   118.4367000   -30.9418500   173.8675000   -2.4282730    87.5023700    
12675000000   -1.3374740    101.8135000   -33.2370300   117.5377000   -30.9481300   171.8425000   -2.4262280    85.7440700    
12700000000   -1.3410910    100.6343000   -32.7028700   117.2479000   -30.9444900   169.8195000   -2.4245710    83.9396100    
12725000000   -1.3411330    99.3900300    -32.4727800   116.9895000   -30.9409200   167.7260000   -2.4293980    82.1110200    
12750000000   -1.3371830    98.1468700    -32.0582500   115.7484000   -30.9267400   165.5397000   -2.4418000    80.2630100    
12775000000   -1.3572640    96.9718600    -31.6133100   114.8635000   -30.9230300   163.4252000   -2.4609010    78.4451800    
12800000000   -1.3573770    95.7312600    -31.2795000   114.5274000   -30.9101300   161.2752000   -2.4807010    76.6291700    
12825000000   -1.3664770    94.4444000    -30.8025700   113.1224000   -30.8932100   159.1187000   -2.4959550    74.8034100    
12850000000   -1.3766890    93.1623800    -30.4950800   111.7653000   -30.8911700   156.8421000   -2.5137340    72.9543500    
12875000000   -1.3826410    92.0056700    -30.0757300   110.0386000   -30.9057100   154.7605000   -2.5480670    71.1768300    
12900000000   -1.3874700    90.7970200    -29.7452400   108.9572000   -30.8928000   152.6039000   -2.5812710    69.3986700    
12925000000   -1.3957700    89.5596500    -29.4276400   107.2389000   -30.8899400   150.5336000   -2.6152860    67.6089900    
12950000000   -1.4140150    88.2829400    -29.0514000   105.6221000   -30.8899400   148.5198000   -2.6520200    65.7951400    
12975000000   -1.4230310    87.1165300    -28.7242900   103.8090000   -30.8730200   146.4892000   -2.6808990    63.9600500    
13000000000   -1.4349290    85.8373900    -28.3656700   101.8676000   -30.8633800   144.4843000   -2.7159400    62.1803100    
13025000000   -1.4532020    84.5913100    -28.0531200   100.4038000   -30.8410700   142.5682000   -2.7463410    60.4148000    
13050000000   -1.4546900    83.3247100    -27.7462700   98.8133000    -30.8008700   140.6480000   -2.7759620    58.6659900    
13075000000   -1.4799040    82.0125600    -27.4601700   96.7772200    -30.7782300   138.7316000   -2.8039950    56.9156300    
13100000000   -1.4891400    80.7734600    -27.1481100   95.1516200    -30.7256000   136.8043000   -2.8322310    55.1961700    
13125000000   -1.5108330    79.5261300    -26.8215900   92.7243700    -30.6764300   134.8976000   -2.8621880    53.4354600    
13150000000   -1.5261340    78.1972500    -26.6230400   90.7466900    -30.6173700   132.9097000   -2.8970820    51.6555700    
13175000000   -1.5393010    76.9993600    -26.3219800   89.0203500    -30.5657700   131.0012000   -2.9285100    49.8452800    
13200000000   -1.5704780    75.6988600    -26.0952000   86.6382700    -30.5119300   128.9945000   -2.9620340    48.0608900    
13225000000   -1.5880550    74.4646500    -25.7888700   84.3055300    -30.4413800   127.1001000   -2.9924470    46.2974500    
13250000000   -1.6201190    73.1382100    -25.5665200   82.4697700    -30.3731700   125.1755000   -3.0306470    44.5142600    
13275000000   -1.6310790    71.7960400    -25.2712800   80.2898900    -30.2931800   123.2285000   -3.0658330    42.7005300    
13300000000   -1.6596690    70.4659400    -25.0766100   77.9745500    -30.2319800   121.2393000   -3.0976580    40.8982600    
13325000000   -1.6872490    69.2332200    -24.8839100   75.8775200    -30.1623500   119.4673000   -3.1407600    39.1504600    
13350000000   -1.7090150    67.9992800    -24.6159900   73.5603600    -30.0707400   117.6445000   -3.1790840    37.3956700    
13375000000   -1.7413830    66.5824100    -24.5010200   71.3534900    -29.9861500   115.8082000   -3.2142470    35.6094900    
13400000000   -1.7627070    65.3242000    -24.2931800   69.2731200    -29.8781700   114.0409000   -3.2321420    33.8411900    
13425000000   -1.7991140    64.0755200    -24.1510400   67.0266900    -29.7690900   112.3002000   -3.2504680    32.1564800    
13450000000   -1.8399890    62.7653000    -23.9749400   64.9015800    -29.6484100   110.5734000   -3.2704500    30.5122300    
13475000000   -1.8707740    61.5022200    -23.8367500   62.7779400    -29.4975800   108.8290000   -3.2838330    28.7537600    
13500000000   -1.9038170    60.1071700    -23.6583300   60.7907300    -29.3428100   106.9426000   -3.2749470    26.8705900    
13525000000   -1.9523160    58.8653200    -23.5199800   58.7622500    -29.1865300   105.0426000   -3.2418200    24.9408300    
13550000000   -1.9896540    57.4636200    -23.4175300   56.8402900    -29.0176600   103.0470000   -3.2076040    23.0567400    
13575000000   -2.0319410    56.0999100    -23.3125300   54.9007100    -28.8526000   101.0172000   -3.1687770    21.1474300    
13600000000   -2.0726310    54.7033400    -23.1662500   53.0817000    -28.6767000   98.9518800    -3.1195780    19.0280100    
13625000000   -2.1186370    53.3971300    -23.1207100   51.1393600    -28.5226000   96.8032400    -3.0548850    16.7091300    
13650000000   -2.1731870    51.9908400    -23.0686500   49.5585600    -28.3860900   94.6868800    -2.9948740    14.3267300    
13675000000   -2.2283850    50.7443300    -23.0440800   48.2285600    -28.2470500   92.7232100    -2.9323100    11.8247000    
13700000000   -2.2721460    49.3813400    -23.0404500   47.0384200    -28.0984400   90.8609200    -2.8801160    9.1051100     
13725000000   -2.3314130    48.0960100    -23.0422900   46.6838400    -27.9445200   89.1487700    -2.8177190    6.0777880     
13750000000   -2.3845720    46.7126200    -23.0618400   46.8244300    -27.7692000   87.6093700    -2.7647690    2.8721090     
13775000000   -2.4499480    45.2718200    -22.9971700   47.8934100    -27.5592400   86.1706400    -2.7385040    -0.4795373    
13800000000   -2.5226800    43.9375900    -22.7589500   49.9451200    -27.3008400   84.8236900    -2.7512610    -4.0683120    
13825000000   -2.5834520    42.4226000    -22.2669900   52.0407900    -26.9658400   83.3312100    -2.8075380    -7.9487650    
13850000000   -2.6509600    40.9871300    -21.5875100   53.2505900    -26.5853500   81.5284600    -2.9027850    -11.9221800   
13875000000   -2.7170000    39.4567100    -20.7805500   53.4471900    -26.1864300   79.4044100    -3.0484310    -15.7220400   
13900000000   -2.8079910    38.0148500    -19.8893600   52.2077900    -25.7721000   76.8448200    -3.2435000    -19.2543900   
13925000000   -2.8958030    36.5990400    -19.0608100   49.7047800    -25.3807800   73.9684800    -3.4822320    -22.6346300   
13950000000   -2.9915030    35.0503200    -18.3122600   46.6109400    -25.0031400   70.7771500    -3.7307420    -25.9132500   
13975000000   -3.0976510    33.5562500    -17.6547500   42.8789000    -24.6673500   67.4172800    -3.9707580    -28.9864800   
14000000000   -3.2192210    32.0700100    -17.0913200   38.8655100    -24.3574000   63.9684400    -4.1933770    -31.8113800   
14025000000   -3.3330540    30.6292000    -16.5935500   35.0869900    -24.0656700   60.5789500    -4.4198390    -34.5148700   
14050000000   -3.4566210    29.1689900    -16.1338000   31.1048400    -23.7873600   57.1568500    -4.6388220    -37.2504600   
14075000000   -3.6036410    27.6376000    -15.7321100   26.9454100    -23.5299300   53.6731600    -4.8424470    -40.0267300   
14100000000   -3.7483460    26.0548700    -15.3794100   22.9640000    -23.2898200   50.2049900    -5.0253560    -42.8149600   
14125000000   -3.8945900    24.5387500    -15.0484400   19.1086400    -23.0498500   46.8022800    -5.1933920    -45.5311900   
14150000000   -4.0475700    23.1567000    -14.7284800   15.2066600    -22.8104500   43.3802800    -5.3623160    -48.2341600   
14175000000   -4.2219800    21.8022000    -14.4006600   11.3598400    -22.5711300   40.0050500    -5.5314720    -50.9950600   
14200000000   -4.4168290    20.3945300    -14.1176200   7.5766260     -22.3398000   36.5970400    -5.7024080    -53.8684200   
14225000000   -4.6090310    18.8955000    -13.8355500   3.8471850     -22.1008100   33.1319500    -5.8630510    -56.8061700   
14250000000   -4.8022750    17.4869100    -13.5819000   0.1329053     -21.8685400   29.7041100    -6.0221230    -59.7402500   
14275000000   -5.0152830    16.2042800    -13.2970500   -3.5868770    -21.6364200   26.2274200    -6.1736210    -62.6942700   
14300000000   -5.2437270    15.0318200    -13.0548500   -7.2424420    -21.3958300   22.6864000    -6.3380520    -65.7254400   
14325000000   -5.4974710    13.7148800    -12.7970800   -10.9408600   -21.1678900   19.1248700    -6.5082970    -68.8636200   
14350000000   -5.7493020    12.4703200    -12.5512500   -14.7423500   -20.9340600   15.5423900    -6.6725490    -72.1108900   
14375000000   -5.9962990    11.2988500    -12.3063100   -18.3453200   -20.7013900   11.8925600    -6.8146870    -75.4028400   
14400000000   -6.2774430    10.2508800    -12.0733400   -22.0723400   -20.4711200   8.1613360     -6.9530060    -78.6514400   
14425000000   -6.5830450    9.1911490     -11.8509200   -25.8830700   -20.2488800   4.4008980     -7.1079470    -81.9077500   
14450000000   -6.9034110    8.2050030     -11.6282600   -29.5906400   -20.0335400   0.5954242     -7.2725010    -85.2621300   
14475000000   -7.2145060    7.3638390     -11.4089800   -33.3070000   -19.8158000   -3.2170140    -7.4231960    -88.7683200   
14500000000   -7.5756980    6.6583080     -11.1835000   -37.1596500   -19.6027500   -7.1159480    -7.5547110    -92.2570000   
14525000000   -7.9730810    6.0314070     -10.9716800   -41.0163500   -19.4017200   -11.0546700   -7.6838900    -95.7245300   
14550000000   -8.3831680    5.5165990     -10.7718400   -44.9114200   -19.2030300   -15.0444800   -7.8214530    -99.1353100   
14575000000   -8.8040920    5.2323380     -10.5765600   -48.8344300   -19.0144300   -19.0715400   -7.9761520    -102.7021000  
14600000000   -9.2423290    5.3614590     -10.3826400   -52.8133200   -18.8308400   -23.1099500   -8.1069610    -106.3376000  
14625000000   -9.7126320    5.7558770     -10.1999300   -56.7844300   -18.6525700   -27.1837300   -8.2350890    -109.9731000  
14650000000   -10.2212400   6.5266410     -10.0274900   -60.8343400   -18.4851000   -31.2881400   -8.3626580    -113.5327000  
14675000000   -10.7266800   7.6039150     -9.8696210    -64.8940100   -18.3202600   -35.4059700   -8.5055390    -117.1062000  
14700000000   -11.2127000   9.3908580     -9.7149100    -68.9556700   -18.1686400   -39.5763900   -8.6487460    -120.8179000  
14725000000   -11.7015200   11.8191100    -9.5761090    -73.0641700   -18.0209500   -43.7919800   -8.7847520    -124.5533000  
14750000000   -12.1630100   14.8145200    -9.4585070    -77.1811400   -17.8871200   -47.9965200   -8.9195260    -128.2154000  
14775000000   -12.5526600   18.3498700    -9.3271630    -81.3832000   -17.7546000   -52.2336000   -9.0554890    -131.7092000  
14800000000   -12.8513000   22.5610200    -9.2308040    -85.5050700   -17.6340300   -56.4774900   -9.2176320    -135.2059000  
14825000000   -13.0112400   27.2433800    -9.1393770    -89.6560700   -17.5217600   -60.7475900   -9.3823390    -138.6599000  
14850000000   -13.0360400   32.2607600    -9.0660470    -93.8545500   -17.4133800   -65.0747400   -9.5273430    -141.9326000  
14875000000   -12.9290400   37.0349200    -8.9968070    -97.9783200   -17.3250600   -69.4020800   -9.6797070    -144.7811000  
14900000000   -12.6650300   41.4139200    -8.9477950    -101.9938000  -17.2400900   -73.7135800   -9.8371140    -147.2319000  
14925000000   -12.2772600   45.2329000    -8.9074720    -106.0286000  -17.1648300   -78.1112300   -9.9818240    -149.4379000  
14950000000   -11.7840100   48.4832800    -8.8787450    -110.0252000  -17.1113600   -82.5352200   -10.0720500   -151.4993000  
14975000000   -11.2690700   51.3257400    -8.8553950    -113.9918000  -17.0705600   -86.9423800   -10.0614400   -153.3030000  
15000000000   -10.7493600   53.2822200    -8.8402980    -117.8978000  -17.0556200   -91.3381000   -9.9561100    -154.7899000  
15025000000   -10.2200100   54.4668400    -8.8196620    -121.7389000  -17.0557000   -95.6742200   -9.7889150    -156.3138000  
15050000000   -9.6802100    55.0807400    -8.8075490    -125.6168000  -17.0639900   -99.9673500   -9.5683050    -158.2493000  
15075000000   -9.1458980    55.3205900    -8.8019320    -129.4875000  -17.0954600   -104.2338000  -9.2836520    -160.7465000  
15100000000   -8.6453110    55.2946300    -8.8053050    -133.3182000  -17.1459800   -108.3739000  -8.9654280    -163.4710000  
15125000000   -8.1837260    55.0349100    -8.8234120    -137.0950000  -17.2014300   -112.3860000  -8.6575430    -166.2472000  
15150000000   -7.7654520    54.3399200    -8.8355360    -140.8484000  -17.2576400   -116.2885000  -8.3862090    -169.2371000  
15175000000   -7.3689470    53.4575100    -8.8527700    -144.6022000  -17.3201700   -120.1255000  -8.1375360    -172.6128000  
15200000000   -6.9933710    52.4170000    -8.8889610    -148.2959000  -17.3884700   -123.9251000  -7.8869210    -176.2265000  
15225000000   -6.6512410    51.3787300    -8.9252070    -151.9603000  -17.4653500   -127.5763000  -7.6413160    -179.7225000  
15250000000   -6.3389160    50.2464400    -8.9770090    -155.5546000  -17.5342300   -131.1414000  -7.4303720    176.9710000   
15275000000   -6.0492550    48.9245800    -9.0185300    -159.0679000  -17.6067200   -134.6539000  -7.2530970    173.6122000   
15300000000   -5.7721210    47.5950900    -9.0692630    -162.5660000  -17.6739800   -138.1048000  -7.0825880    170.0811000   
15325000000   -5.5024100    46.2546400    -9.1244920    -166.0456000  -17.7441100   -141.5148000  -6.9102530    166.5525000   
15350000000   -5.2458660    44.9183400    -9.1638310    -169.4868000  -17.8116600   -144.8445000  -6.7423060    163.2253000   
15375000000   -5.0223480    43.5002600    -9.2236780    -172.8449000  -17.8729900   -148.1426000  -6.5861530    160.0387000   
15400000000   -4.8027230    42.0709300    -9.2810500    -176.1879000  -17.9360300   -151.3501000  -6.4569960    156.8328000   
15425000000   -4.5859280    40.5358400    -9.3445390    -179.4916000  -18.0019600   -154.5355000  -6.3352790    153.5795000   
15450000000   -4.3758360    39.0537200    -9.4072590    177.2507000   -18.0540000   -157.7077000  -6.1977980    150.3434000   
15475000000   -4.1874280    37.5505000    -9.4661040    173.9729000   -18.1154700   -160.8678000  -6.0615990    147.2083000   
15500000000   -4.0077760    35.9527900    -9.5361830    170.7680000   -18.1709600   -163.9726000  -5.9355380    144.1833000   
15525000000   -3.8347860    34.2830300    -9.5961290    167.5201000   -18.2273500   -167.0721000  -5.8154400    141.2600000   
15550000000   -3.6615500    32.6001000    -9.6731160    164.3697000   -18.2850600   -170.1020000  -5.7085780    138.3778000   
15575000000   -3.5051250    30.9667300    -9.7426200    161.2572000   -18.3423000   -173.1280000  -5.6108560    135.4690000   
15600000000   -3.3684150    29.3658200    -9.8138860    158.1441000   -18.3885100   -176.0938000  -5.5002730    132.5058000   
15625000000   -3.2408590    27.5163200    -9.8899950    155.1134000   -18.4449000   -179.1047000  -5.3753300    129.6683000   
15650000000   -3.1103800    25.7079100    -9.9631220    152.0328000   -18.5008500   177.9438000   -5.2640970    127.0442000   
15675000000   -2.9880960    23.9789500    -10.0419900   149.0787000   -18.5601600   175.1113000   -5.1790020    124.5456000   
15700000000   -2.8789630    22.2906300    -10.1082600   146.1533000   -18.6015500   172.2435000   -5.0991960    121.9269000   
15725000000   -2.7876100    20.5668000    -10.1788300   143.2288000   -18.6508800   169.3991000   -5.0134960    119.1676000   
15750000000   -2.7023470    18.7199500    -10.2567200   140.3259000   -18.7052500   166.5140000   -4.9166930    116.5077000   
15775000000   -2.6114950    16.9396100    -10.3329900   137.4959000   -18.7583800   163.7677000   -4.8225360    114.0764000   
15800000000   -2.5318580    15.2269000    -10.4024800   134.6882000   -18.8036900   161.0593000   -4.7561360    111.7409000   
15825000000   -2.4696990    13.4964000    -10.4678700   131.9652000   -18.8428000   158.3442000   -4.6968550    109.2924000   
15850000000   -2.4006490    11.6847500    -10.5288000   129.1575000   -18.8773200   155.6139000   -4.6240870    106.7594000   
15875000000   -2.3311340    9.8541610     -10.5973200   126.3776000   -18.9183800   152.9075000   -4.5457460    104.3453000   
15900000000   -2.2667370    8.1239840     -10.6632600   123.7073000   -18.9622600   150.3016000   -4.4857340    102.0851000   
15925000000   -2.2052840    6.4334040     -10.7282400   121.0573000   -18.9924500   147.6724000   -4.4393740    99.7821000    
15950000000   -2.1583310    4.7231320     -10.7743600   118.3846000   -19.0206800   145.0192000   -4.3757160    97.3020600    
15975000000   -2.1111870    2.9767130     -10.8304800   115.5982000   -19.0555800   142.3496000   -4.3056390    94.8255200    
16000000000   -2.0605670    1.2070190     -10.9120700   112.9308000   -19.0961200   139.7625000   -4.2358260    92.5737400    
16025000000   -2.0208280    -0.4695615    -10.9679800   110.3510000   -19.1279700   137.2042000   -4.1801450    90.4478100    
16050000000   -1.9776590    -2.1572900    -11.0040800   107.7196000   -19.1384600   134.6567000   -4.1336580    88.2551000    
16075000000   -1.9404630    -3.9049730    -11.0532500   105.0580000   -19.1576700   132.0608000   -4.0903810    85.9308500    
16100000000   -1.9100560    -5.7170670    -11.1148700   102.4166000   -19.1835400   129.4228000   -4.0375940    83.7128200    
16125000000   -1.8807440    -7.5037690    -11.1666500   99.8684800    -19.2085900   126.8978000   -3.9986990    81.6569600    
16150000000   -1.8527010    -9.2833710    -11.2118300   97.3378600    -19.2233900   124.3772000   -3.9831570    79.5944600    
16175000000   -1.8162220    -11.0429700   -11.2491600   94.7005500    -19.2387100   121.8321000   -3.9774920    77.3083000    
16200000000   -1.7965200    -12.7802200   -11.2970400   92.1088300    -19.2635300   119.2110000   -3.9544950    74.9544200    
16225000000   -1.7863900    -14.5742000   -11.3379300   89.5091900    -19.2797700   116.6180000   -3.9186070    72.7872400    
16250000000   -1.7744100    -16.4093000   -11.3833200   87.0142100    -19.2964000   114.0682000   -3.9164570    70.8704300    
16275000000   -1.7619770    -18.3156600   -11.4077100   84.3914600    -19.2989300   111.4411000   -3.9413760    68.9134900    
16300000000   -1.7507960    -20.2361600   -11.4553400   81.6583700    -19.3245800   108.6666000   -3.9905730    66.7700000    
16325000000   -1.7453100    -22.0261100   -11.4979300   78.8830100    -19.3634000   105.8669000   -4.0349700    64.6763200    
16350000000   -1.7555620    -23.8215000   -11.5646300   76.0475000    -19.4160400   102.9751000   -4.0892600    62.9250800    
16375000000   -1.7527660    -25.6819800   -11.6444600   73.0908900    -19.5062100   99.9679900    -4.1879840    61.6245100    
16400000000   -1.7547260    -27.4913300   -11.7924000   70.1370100    -19.6712500   97.0047200    -4.2952200    60.7440900    
16425000000   -1.7475990    -29.2687300   -12.0448200   67.5330700    -19.9587400   94.5280000    -4.3454920    60.3313600    
16450000000   -1.7497960    -31.0392100   -12.3058000   65.8567500    -20.2531900   93.3287100    -4.2138710    60.1066400    
16475000000   -1.7600680    -33.0265400   -12.4673300   65.1477100    -20.3926400   93.1191200    -3.9537600    59.2548800    
16500000000   -1.7717220    -35.2005900   -12.4838400   64.3976700    -20.3622900   92.8635900    -3.7424590    57.5326700    
16525000000   -1.7704250    -37.3384700   -12.4142300   63.2079100    -20.2319700   91.9719200    -3.6145220    55.3031500    
16550000000   -1.7882240    -39.2504600   -12.3135900   61.7294400    -20.0865400   90.6305400    -3.5262800    52.9904700    
16575000000   -1.8210310    -41.1563600   -12.1927700   59.9245100    -19.9403600   88.9356900    -3.4700260    50.8849800    
16600000000   -1.8648340    -43.2182000   -12.0844100   57.8422700    -19.7908300   87.0563000    -3.4423720    48.9829700    
16625000000   -1.8944780    -45.4585000   -11.9784300   55.6649800    -19.6471400   84.9211400    -3.4241380    47.0629800    
16650000000   -1.9249670    -47.5051100   -11.8959400   53.2996800    -19.5349300   82.7570300    -3.4209590    45.0788900    
16675000000   -1.9696990    -49.4611000   -11.8240800   50.9723600    -19.4265000   80.5432500    -3.3988240    43.2192200    
16700000000   -2.0239630    -51.5035600   -11.7310400   48.5358200    -19.3146400   78.3450200    -3.3676710    41.5872500    
16725000000   -2.0909000    -53.7763300   -11.6629500   45.9760600    -19.1915900   75.9977400    -3.3425750    40.0016400    
16750000000   -2.1373060    -56.0520900   -11.5768800   43.4390300    -19.0842900   73.5970400    -3.3470580    38.2696400    
16775000000   -2.1900970    -58.3039300   -11.5237000   40.8425500    -18.9954000   71.2098500    -3.3336740    36.5001900    
16800000000   -2.2524150    -60.4120000   -11.4697000   38.3861700    -18.9027100   68.8740500    -3.3034750    34.8555100    
16825000000   -2.3295980    -62.5482400   -11.4158000   35.9151200    -18.8028300   66.5822800    -3.2939510    33.2999200    
16850000000   -2.3974460    -64.8120200   -11.3493700   33.2432000    -18.6938900   64.1483800    -3.3038470    31.6425700    
16875000000   -2.4723550    -67.0224100   -11.2825700   30.7279200    -18.5797800   61.7777200    -3.2984160    29.8535100    
16900000000   -2.5585220    -69.2520100   -11.2311800   28.1185100    -18.4803800   59.3751700    -3.2791800    28.1021400    
16925000000   -2.6514360    -71.4967000   -11.1748000   25.7220500    -18.3637000   56.9921800    -3.2610490    26.6108700    
16950000000   -2.7448900    -73.7939500   -11.0789900   23.1135100    -18.2262600   54.5156300    -3.2581850    25.2181200    
16975000000   -2.8447050    -76.1631400   -10.9947100   20.4593400    -18.0877900   51.9412000    -3.2885900    23.6193000    
17000000000   -2.9433460    -78.5584800   -10.9139200   17.7936500    -17.9507300   49.3170200    -3.3042220    21.9129800    
17025000000   -3.0528100    -81.0178100   -10.8191200   15.1335600    -17.8048100   46.5846500    -3.2842130    20.3339100    
17050000000   -3.1636650    -83.4437000   -10.7189000   12.3680500    -17.6696300   43.8000500    -3.2753360    18.9746800    
17075000000   -3.2735070    -85.8958100   -10.6119900   9.5872710     -17.5224600   40.8973200    -3.2867730    17.6548100    
17100000000   -3.3933920    -88.3485200   -10.5017100   6.6125860     -17.3766300   37.9286500    -3.3037150    16.1830800    
17125000000   -3.5325840    -90.8941300   -10.4057800   3.5372370     -17.2428600   34.7871000    -3.3034260    14.6520100    
17150000000   -3.6765960    -93.4621800   -10.2877100   0.3604035     -17.0966000   31.5888500    -3.2804980    13.2764000    
17175000000   -3.8311930    -96.2167700   -10.1811000   -2.9867370    -16.9704400   28.1619000    -3.2691500    11.9821300    
17200000000   -3.9708070    -98.9307000   -10.0916000   -6.4055850    -16.8559200   24.6051300    -3.2877710    10.6524000    
17225000000   -4.1397710    -101.6474000  -10.0238500   -10.0876100   -16.7646500   20.9702100    -3.2999270    9.2229940     
17250000000   -4.3022760    -104.4466000  -9.9701480    -13.8515100   -16.7000000   17.1155500    -3.2987640    7.8140500     
17275000000   -4.4656830    -107.3221000  -9.9573140    -17.6600200   -16.6715900   13.2336500    -3.2920440    6.5791740     
17300000000   -4.6068350    -110.3289000  -9.9867670    -21.6125600   -16.6931900   9.2507360     -3.2992780    5.4643290     
17325000000   -4.7277380    -113.3702000  -10.0659600   -25.4337100   -16.7729300   5.3914880     -3.3160600    4.3833970     
17350000000   -4.8674120    -116.5619000  -10.1825700   -29.0198400   -16.8957300   1.8351790     -3.3111630    3.3362030     
17375000000   -5.0190600    -120.1332000  -10.3273600   -32.2348400   -17.0405400   -1.2864250    -3.2720230    2.3426050     
17400000000   -5.1943520    -124.1375000  -10.4696800   -35.0806800   -17.1784600   -3.9758010    -3.2160450    1.3178790     
17425000000   -5.4064540    -128.4388000  -10.5649900   -37.6713200   -17.2846000   -6.3799250    -3.1529200    0.1555259     
17450000000   -5.6510240    -132.7332000  -10.6083400   -40.0190900   -17.3350100   -8.6082300    -3.0851210    -1.1507510    
17475000000   -5.9576010    -137.3346000  -10.6337600   -42.4923800   -17.3321700   -10.8667700   -3.0041720    -2.4549680    
17500000000   -6.3015060    -142.0916000  -10.5976000   -45.0609900   -17.2802000   -13.3064300   -2.9216660    -3.8165250    
17525000000   -6.6521330    -146.9151000  -10.5797800   -47.8164400   -17.2299900   -16.0324800   -2.8698330    -5.3672180    
17550000000   -7.0233660    -151.7400000  -10.5413300   -50.7122500   -17.1692500   -18.8732400   -2.8143310    -6.9752690    
17575000000   -7.4384880    -156.5888000  -10.5061200   -53.8173400   -17.1200300   -21.8931200   -2.7621400    -8.6016130    
17600000000   -7.8978840    -161.7768000  -10.4725200   -56.9330200   -17.0765700   -25.0070100   -2.7021760    -10.1013500   
17625000000   -8.3793240    -167.2792000  -10.4622500   -60.1807600   -17.0453700   -28.2407200   -2.6537150    -11.5952000   
17650000000   -8.8524220    -172.9873000  -10.4627900   -63.5802400   -17.0268700   -31.6123000   -2.6178750    -13.2271000   
17675000000   -9.3391240    -178.8100000  -10.4740400   -66.9989300   -17.0329600   -35.0852700   -2.5833240    -14.9302200   
17700000000   -9.9074950    175.0324000   -10.5009100   -70.2856200   -17.0543000   -38.4870000   -2.5425110    -16.5167400   
17725000000   -10.4889500   168.0697000   -10.5445200   -73.7295500   -17.0904000   -41.9474400   -2.5067920    -18.0165200   
17750000000   -11.0107400   160.6710000   -10.5991600   -77.2273900   -17.1531500   -45.4844900   -2.4957410    -19.6390000   
17775000000   -11.4938300   153.1020000   -10.6795100   -80.6565800   -17.2358200   -49.0390600   -2.4884270    -21.3890600   
17800000000   -12.0069600   145.3476000   -10.7539300   -83.9798600   -17.3287900   -52.5218100   -2.4627420    -23.1346400   
17825000000   -12.5379900   136.7148000   -10.8690500   -87.2674000   -17.4517900   -55.9400900   -2.4329380    -24.7449600   
17850000000   -12.9710500   127.2945000   -10.9784800   -90.5389300   -17.5952800   -59.3652900   -2.4218850    -26.2509000   
17875000000   -13.2818100   117.5990000   -11.1034000   -93.7494200   -17.7691000   -62.8046900   -2.4373630    -27.8519000   
17900000000   -13.5493700   108.1425000   -11.2585500   -96.8186100   -17.9552700   -66.0810500   -2.4571900    -29.5591600   
17925000000   -13.7794200   98.0601700    -11.4033500   -99.7317400   -18.1682300   -69.2833900   -2.4678790    -31.3988200   
17950000000   -13.8580000   87.5388200    -11.5790600   -102.5825000  -18.4305500   -72.3262800   -2.4811550    -33.1665600   
17975000000   -13.7536500   77.3611700    -11.7608800   -105.0597000  -18.7233100   -75.0892400   -2.5103090    -34.7274700   
18000000000   -13.5667400   68.3595600    -11.9245300   -107.4814000  -19.0464000   -77.5569900   -2.5762990    -36.3071300   
18025000000   -13.4384500   59.9768000    -12.0821000   -109.3527000  -19.3924200   -79.4746900   -2.6629630    -37.8098900   
18050000000   -13.3391600   51.5275000    -12.1858300   -111.0229000  -19.7277700   -80.7258900   -2.7487140    -39.2581300   
18075000000   -13.1650900   43.1742100    -12.2365700   -112.4511000  -20.0340000   -81.3395900   -2.8486030    -40.4953100   
18100000000   -12.8959600   35.7482700    -12.2084800   -113.8353000  -20.2261200   -81.1356400   -2.9471320    -41.1935300   
18125000000   -12.6855700   29.6326800    -12.0959800   -115.4245000  -20.2482500   -80.6945200   -3.0375320    -41.5999100   
18150000000   -12.5259700   24.0208300    -11.9097200   -117.4952000  -20.0974500   -80.5883900   -3.0857150    -41.9404900   
18175000000   -12.3892000   19.0112900    -11.7129000   -120.1211000  -19.8301000   -81.3809200   -3.0471640    -42.3018800   
18200000000   -12.2622600   14.0606300    -11.5219000   -123.3788000  -19.5372300   -83.1546700   -2.9351920    -42.7739700   
18225000000   -12.0952400   9.8843980     -11.3766000   -126.8045000  -19.2916000   -85.7163300   -2.8057000    -43.4807400   
18250000000   -11.9490100   6.4021570     -11.2692800   -130.5371000  -19.1082400   -88.6312600   -2.6746850    -44.4440200   
18275000000   -11.8425800   3.8998700     -11.1790600   -134.2225000  -18.9705300   -91.7258400   -2.5459130    -45.7784200   
18300000000   -11.7123300   1.7519310     -11.1113300   -138.1934000  -18.8676200   -94.8830600   -2.4149760    -47.2635300   
18325000000   -11.4858100   -0.3429226    -11.0549500   -142.1105000  -18.7903000   -98.1350100   -2.2953320    -48.7533200   
18350000000   -11.1129700   -2.2555340    -11.0283700   -146.3171000  -18.7402100   -101.4936000  -2.2068960    -50.3080400   
18375000000   -10.6624400   -4.1477170    -11.0479200   -150.6307000  -18.7180000   -104.9414000  -2.1339530    -51.9990300   
18400000000   -10.2156200   -6.2415490    -11.1008400   -154.9629000  -18.7314200   -108.4998000  -2.0578470    -53.8563900   
18425000000   -9.8248860    -8.8706560    -11.1984200   -159.1888000  -18.7780800   -111.9940000  -1.9720100    -55.5660100   
18450000000   -9.4713910    -12.0326000   -11.3215400   -163.3167000  -18.8597600   -115.5162000  -1.9085970    -57.1546400   
18475000000   -9.1385100    -15.5035700   -11.4754800   -167.3867000  -18.9701700   -118.8832000  -1.8805080    -58.6773100   
18500000000   -8.8218680    -18.8857700   -11.6174400   -171.3180000  -19.1057900   -122.1477000  -1.8646070    -60.3869100   
18525000000   -8.5711030    -22.2428300   -11.7912800   -175.2787000  -19.2601200   -125.3573000  -1.8402270    -62.2945400   
18550000000   -8.3520630    -25.6263000   -11.9647600   -179.0731000  -19.4389500   -128.4217000  -1.8086130    -64.1062800   
18575000000   -8.1633130    -28.8737200   -12.1592100   177.2893000   -19.6332600   -131.2459000  -1.7851790    -65.6913200   
18600000000   -8.0230690    -32.1012500   -12.3708000   173.6192000   -19.8360300   -133.9753000  -1.7834600    -67.3089000   
18625000000   -7.9261600    -35.1802300   -12.5569800   170.0547000   -20.0465900   -136.5379000  -1.7832310    -69.0399700   
18650000000   -7.8485830    -38.4266600   -12.7761100   166.4118000   -20.2604400   -138.9674000  -1.7693010    -70.8082500   
18675000000   -7.7931350    -41.5583800   -12.9953900   162.8559000   -20.4893900   -141.1907000  -1.7545270    -72.4609000   
18700000000   -7.7613390    -44.4710000   -13.2441500   159.4632000   -20.7192900   -143.1775000  -1.7526870    -74.0027700   
18725000000   -7.7718060    -47.3314700   -13.4891900   156.0614000   -20.9507500   -144.9457000  -1.7683510    -75.5906400   
18750000000   -7.8359770    -50.2622200   -13.7542300   152.6507000   -21.1728400   -146.5311000  -1.7749270    -77.2933700   
18775000000   -7.8982880    -53.2159200   -14.0306300   149.2074000   -21.3807100   -147.8948000  -1.7758600    -79.0811900   
18800000000   -7.9558670    -55.8904700   -14.3455500   146.0126000   -21.5860700   -148.8906000  -1.7821920    -80.6234100   
18825000000   -8.0493600    -58.1464700   -14.6823100   142.8972000   -21.7556300   -149.6118000  -1.7954110    -82.1305000   
18850000000   -8.2105470    -60.1657800   -15.0128500   139.9802000   -21.8808800   -150.1880000  -1.8266710    -83.7279300   
18875000000   -8.4079030    -62.2072600   -15.3864900   137.0849000   -21.9518300   -150.4532000  -1.8510560    -85.2278800   
18900000000   -8.6166130    -64.2158400   -15.7959900   134.6499000   -21.9571600   -150.6957000  -1.8712060    -86.7214200   
18925000000   -8.7953480    -65.8200800   -16.1771600   132.3389000   -21.9037400   -150.9072000  -1.9018870    -88.1525900   
18950000000   -8.9908220    -66.8273400   -16.5931200   130.2730000   -21.7887500   -151.2157000  -1.9390720    -89.6563800   
18975000000   -9.2018180    -67.2026700   -17.0030800   128.7127000   -21.6120900   -151.7623000  -1.9715060    -91.2842800   
19000000000   -9.4524220    -67.1253700   -17.4017900   127.4217000   -21.4007300   -152.5199000  -1.9897330    -92.8140600   
19025000000   -9.7163720    -66.7807800   -17.8224400   126.4006000   -21.1521800   -153.5482000  -2.0000840    -94.1337600   
19050000000   -9.9644330    -66.3423000   -18.1970700   126.1683000   -20.8809800   -154.8707000  -2.0215260    -95.2692900   
19075000000   -10.1349900   -65.9506100   -18.5134900   125.9003000   -20.5900700   -156.5287000  -2.0550470    -96.4997700   
19100000000   -10.1776900   -65.2234200   -18.7880100   126.2922000   -20.2996400   -158.4427000  -2.0927040    -97.9418200   
19125000000   -10.0867200   -63.9411100   -19.0137200   126.7763000   -20.0078000   -160.5170000  -2.1108810    -99.4574500   
19150000000   -9.9197370    -62.1884400   -19.1443500   127.9605000   -19.7223800   -162.7785000  -2.1157870    -100.8710000  
19175000000   -9.6856840    -60.6042600   -19.1841500   129.2367000   -19.4192300   -165.1116000  -2.1254090    -102.0257000  
19200000000   -9.3832770    -59.3047800   -19.0900800   130.5585000   -19.1017400   -167.7108000  -2.1427860    -103.3053000  
19225000000   -8.9887720    -58.5311500   -18.8934200   131.5221000   -18.7853300   -170.5624000  -2.1718730    -104.8151000  
19250000000   -8.5704990    -58.0520800   -18.5906800   132.3618000   -18.4699700   -173.6452000  -2.1808440    -106.4426000  
19275000000   -8.1930620    -58.2239200   -18.2183200   132.2950000   -18.1664100   -176.8692000  -2.1738900    -107.8992000  
19300000000   -7.8623640    -59.5273400   -17.7718600   131.8253000   -17.8577300   179.7297000   -2.1649150    -109.0307000  
19325000000   -7.4998490    -61.6981500   -17.3055500   130.8797000   -17.5390300   176.0681000   -2.1756330    -110.1358000  
19350000000   -7.1175530    -64.3273600   -16.8379600   129.1422000   -17.2323200   172.1745000   -2.2140390    -111.5002000  
19375000000   -6.7423520    -66.7394000   -16.3218600   127.0911000   -16.9406100   168.0091000   -2.2515480    -113.1794000  
19400000000   -6.4705640    -69.1006600   -15.8813000   124.5971000   -16.6530600   163.6779000   -2.2770760    -114.8067000  
19425000000   -6.2830850    -71.5935400   -15.3580600   121.8839000   -16.3654900   159.1657000   -2.3018550    -116.0994000  
19450000000   -6.1843100    -74.2265000   -14.8732700   118.7061000   -16.0597400   154.1869000   -2.3514540    -117.1704000  
19475000000   -6.1617200    -76.7383500   -14.3321700   114.8585000   -15.7780700   148.5266000   -2.4402880    -118.3541000  
19500000000   -6.2451490    -79.0956700   -13.8351200   109.9634000   -15.5811600   142.0771000   -2.5429640    -119.6748000  
19525000000   -6.3887680    -81.0640600   -13.4315000   104.2872000   -15.5318100   134.9807000   -2.6156910    -120.8431000  
19550000000   -6.4938150    -82.2431700   -13.1701100   97.8361100    -15.6849800   127.8924000   -2.6396260    -121.5512000  
19575000000   -6.5073510    -82.7092200   -13.0973700   91.6203600    -16.0216700   121.5033000   -2.6216860    -121.9339000  
19600000000   -6.4400090    -82.8248400   -13.1583200   85.8441800    -16.4626200   116.2586000   -2.5787520    -122.5098000  
19625000000   -6.3279490    -83.2377200   -13.2943700   80.6395900    -16.9114900   112.0961000   -2.5180060    -123.5469000  
19650000000   -6.1932280    -84.2068300   -13.4660100   76.1417400    -17.3121700   108.8173000   -2.4505680    -124.8539000  
19675000000   -6.0385080    -85.6464500   -13.6072800   72.1440800    -17.6371900   106.0869000   -2.3864570    -126.0996000  
19700000000   -5.8943590    -87.1429900   -13.7610300   68.5722900    -17.8798300   103.6025000   -2.3431990    -127.3057000  
19725000000   -5.7702020    -88.5738500   -13.8547900   65.0516700    -18.0516200   101.2682000   -2.3202320    -128.6051000  
19750000000   -5.6790940    -90.0642200   -13.9321100   61.8744300    -18.1744400   98.8298200    -2.3026550    -130.0998000  
19775000000   -5.6046840    -91.6399200   -14.0007600   58.3442500    -18.2635000   96.2660100    -2.2799780    -131.6116000  
19800000000   -5.5180970    -93.2154200   -14.0130100   55.2162300    -18.3187000   93.6758600    -2.2533610    -132.9985000  
19825000000   -5.4560530    -94.6503200   -14.0467300   51.9401600    -18.3584300   90.9898000    -2.2477030    -134.3215000  
19850000000   -5.4103860    -96.1387500   -14.0673200   48.7940400    -18.3857600   88.1858600    -2.2491600    -135.7051000  
19875000000   -5.3711200    -97.6055000   -14.0923700   45.4058900    -18.4001900   85.3299300    -2.2390020    -137.2241000  
19900000000   -5.3265060    -99.1234500   -14.0857000   42.0337100    -18.4079500   82.3500900    -2.2197250    -138.7032000  
19925000000   -5.2796570    -100.4968000  -14.0885500   38.8173400    -18.4064500   79.3031200    -2.2033790    -140.0688000  
19950000000   -5.2490680    -101.8503000  -14.0672700   35.4488000    -18.4047400   76.2566900    -2.1949110    -141.3910000  
19975000000   -5.2285720    -103.1254000  -14.0814700   31.9876300    -18.4032100   73.0977100    -2.1924050    -142.8174000  
20000000000   -5.1977600    -104.5657000  -14.0626800   28.5638200    -18.4045900   69.8861200    -2.1873830    -144.2743000  
