!Mini-Circuits Laboratory
!S-Parameters
!Model: ZX60-33LNR-S+
!Run / Lot / Date Code: E181103 / N/A / N/A
!Fixture: N/A, Pressing Arm: N/A
!Network Analyzer: PNA-X N5242A - 423 4 ports;  Serial number: 74302
!Date: 11/9/2018 at 2:35:26 PM
!S/N: Unit# 3
!Volage and Current limited to 5V and 150mA
# Hz  S  dB  R  50
!Frequency    S11 dB        S11 Deg       S21 dB        S21 Deg       S12 dB        S12 Deg       S22 dB        S22 Deg       
10000000      -7.1168380    -8.2896030    24.7245700    -167.3066000  -39.6783800   79.8954700    -16.7227500   46.0437400    
15000000      -7.3445010    -10.2842800   24.8125000    -173.1995000  -36.9229900   65.0381000    -20.0250500   -1.7690680    
20000000      -7.6166910    -11.5463000   24.8149400    -177.1739000  -35.3821100   54.0216300    -21.7108800   -39.0577000   
25000000      -7.8007820    -12.7491900   24.7941900    -179.7789000  -34.4548800   46.1034200    -21.9271700   -69.1849300   
30000000      -7.8737120    -13.8636800   24.7674400    178.4480000   -33.8600700   40.2352400    -21.4932600   -89.1047100   
35000000      -7.9223290    -14.9532500   24.7452000    176.8784000   -33.4537000   35.6138800    -21.1521100   -103.3284000  
40000000      -7.9620290    -16.2154200   24.7310100    175.4183000   -33.1712200   31.8695900    -20.8581500   -114.5697000  
45000000      -7.9745740    -17.5051500   24.7191000    174.0891000   -32.9566600   28.8097100    -20.6312500   -123.1633000  
50000000      -7.9810890    -18.8479900   24.7160500    172.7749000   -32.7345500   26.3073200    -20.6109000   -130.5676000  
55000000      -7.9688040    -20.2544100   24.7043300    171.6833000   -32.6637200   24.1545700    -20.3075200   -135.7461000  
60000000      -7.9600130    -21.7318700   24.6953900    170.5361000   -32.5601100   22.3723600    -20.2036700   -140.5449000  
65000000      -7.9527330    -23.2531800   24.6868600    169.4124000   -32.4746600   20.8086000    -20.1120700   -144.7740000  
70000000      -7.9442430    -24.7904000   24.6751300    168.3013000   -32.4082300   19.4698000    -20.0421900   -148.5162000  
75000000      -7.9376860    -26.4016700   24.6638300    167.2005000   -32.3492700   18.2757400    -19.9638900   -151.8373000  
80000000      -7.9255630    -27.9216700   24.6525800    166.1511000   -32.2971300   17.2388200    -19.9270800   -154.7527000  
85000000      -7.9091490    -29.4990000   24.6410600    165.0857000   -32.2492000   16.3122600    -19.9029600   -157.3588000  
90000000      -7.8933250    -31.0809100   24.6285300    164.0427000   -32.2051200   15.5037100    -19.8732400   -159.6841000  
95000000      -7.8815210    -32.6195700   24.6156800    163.0106000   -32.1683400   14.7480900    -19.8574400   -161.9334000  
100000000     -7.8661540    -34.2126100   24.6036400    161.9755000   -32.1348200   14.0925600    -19.8384100   -163.9081000  
105000000     -7.8542710    -35.8025300   24.5865800    160.9590000   -32.1017800   13.4426500    -19.8366300   -165.8912000  
110000000     -7.8422430    -37.3517700   24.5741200    159.9576000   -32.0736500   12.9074100    -19.8300900   -167.4450000  
115000000     -7.8293640    -38.9042600   24.5547900    158.9510000   -32.0388200   12.3722200    -19.8249000   -169.2952000  
120000000     -7.8174660    -40.4572900   24.5358600    157.9523000   -32.0130400   11.9176900    -19.8253800   -170.8743000  
125000000     -7.7992800    -41.9749400   24.5207000    156.9934000   -31.9906300   11.4546300    -19.8367700   -172.4129000  
130000000     -7.7872330    -43.4841800   24.5010100    155.9927000   -31.9630500   11.0624900    -19.8360000   -173.8837000  
135000000     -7.7747490    -45.0377500   24.4807000    155.0241000   -31.9371000   10.6752500    -19.8530200   -175.2407000  
140000000     -7.7545290    -46.5903000   24.4629600    154.0641000   -31.9101200   10.3460400    -19.8525700   -176.4142000  
145000000     -7.7450960    -48.1329600   24.4442300    153.1028000   -31.8882900   10.0030400    -19.8672600   -177.7920000  
150000000     -7.7303350    -49.5940100   24.4204100    152.1403000   -31.8610200   9.7039920     -19.8822700   -178.9981000  
155000000     -7.7118190    -51.1720400   24.4010000    151.1918000   -31.8368400   9.4103130     -19.8968300   179.8401000   
160000000     -7.6981010    -52.6517000   24.3788500    150.2256000   -31.8120900   9.1379680     -19.9013400   178.6651000   
165000000     -7.6826410    -54.1253700   24.3558300    149.2911000   -31.7854300   8.8623130     -19.9231200   177.5500000   
170000000     -7.6691160    -55.5937100   24.3322100    148.3433000   -31.7632300   8.6182460     -19.9483700   176.4119000   
175000000     -7.6504590    -57.0649600   24.3109400    147.4115000   -31.7395500   8.3863710     -19.9766500   175.4350000   
180000000     -7.6391550    -58.5069000   24.2853300    146.4894000   -31.7124500   8.1420060     -19.9971600   174.4438000   
185000000     -7.6180110    -59.9565500   24.2616700    145.5497000   -31.6870500   7.9293200     -20.0176200   173.4960000   
190000000     -7.6078320    -61.3814400   24.2357200    144.6280000   -31.6615800   7.6935830     -20.0433700   172.5220000   
195000000     -7.5854140    -62.7979200   24.2099800    143.7072000   -31.6384600   7.5002240     -20.0754600   171.5975000   
200000000     -7.5783990    -64.2668300   24.1824800    142.7939000   -31.6103600   7.2888340     -20.0860900   170.7082000   
205000000     -7.5556150    -65.6198000   24.1574900    141.8900000   -31.5880200   7.1120830     -20.1285200   169.8631000   
210000000     -7.5404460    -67.0278900   24.1299700    140.9750000   -31.5609800   6.9208190     -20.1566000   169.0154000   
215000000     -7.5196140    -68.4102900   24.1045600    140.0744000   -31.5343300   6.7335650     -20.1930600   168.2563000   
220000000     -7.5079760    -69.7245600   24.0772400    139.1851000   -31.5088500   6.5501540     -20.2310900   167.4124000   
225000000     -7.4908900    -71.1259900   24.0508000    138.2706000   -31.4782700   6.3816260     -20.2519900   166.6379000   
230000000     -7.4775420    -72.4525600   24.0220400    137.3936000   -31.4550400   6.1935500     -20.3008100   165.8163000   
235000000     -7.4589280    -73.8559200   23.9935300    136.4964000   -31.4256600   6.0230000     -20.3253900   165.0975000   
240000000     -7.4419550    -75.1613100   23.9647900    135.6111000   -31.3985300   5.8572540     -20.3574400   164.3029000   
245000000     -7.4254220    -76.5107900   23.9361500    134.7225000   -31.3704500   5.6875590     -20.3867400   163.5161000   
250000000     -7.4145240    -77.8836000   23.9048900    133.8334000   -31.3394200   5.5002990     -20.4255900   162.7953000   
255000000     -7.4001930    -79.1209900   23.8765500    132.9689000   -31.3143100   5.3472740     -20.4776400   161.9830000   
260000000     -7.3747340    -80.4024400   23.8472000    132.0907000   -31.2863700   5.1772660     -20.5157800   161.2383000   
265000000     -7.3571250    -81.7366100   23.8184900    131.2157000   -31.2580700   5.0356620     -20.5559100   160.5510000   
270000000     -7.3450280    -83.0189500   23.7870200    130.3532000   -31.2289800   4.8415420     -20.5993800   159.7695000   
275000000     -7.3327010    -84.2889100   23.7555800    129.4975000   -31.1984400   4.6949950     -20.6379200   159.0971000   
280000000     -7.3106030    -85.5287200   23.7239900    128.6373000   -31.1698000   4.5300740     -20.6865800   158.3995000   
285000000     -7.2976620    -86.7890200   23.6908600    127.7834000   -31.1375100   4.3608590     -20.7316000   157.6913000   
290000000     -7.2765010    -88.0422500   23.6606000    126.9328000   -31.1093600   4.2028160     -20.7665200   157.0648000   
295000000     -7.2611420    -89.2668800   23.6289700    126.0818000   -31.0773700   4.0547830     -20.8145800   156.3845000   
300000000     -7.2441150    -90.4531300   23.5981300    125.2402000   -31.0456400   3.8739200     -20.8655100   155.8431000   
305000000     -7.2298030    -91.6636900   23.5647100    124.3955000   -31.0162600   3.7256610     -20.9137200   155.1306000   
310000000     -7.2104820    -92.8457700   23.5338800    123.5659000   -30.9848200   3.5687840     -20.9654800   154.5873000   
315000000     -7.1951820    -94.0248500   23.5004400    122.7375000   -30.9557000   3.3911560     -21.0130200   153.9384000   
320000000     -7.1811580    -95.1980900   23.4684300    121.9099000   -30.9268600   3.2309520     -21.0633000   153.3486000   
325000000     -7.1632490    -96.3681900   23.4349200    121.0778000   -30.8949500   3.0651180     -21.1049400   152.7637000   
330000000     -7.1440560    -97.5470800   23.4015600    120.2430000   -30.8643400   2.9089140     -21.1548400   152.1454000   
335000000     -7.1308080    -98.6999700   23.3683700    119.4234000   -30.8317300   2.7419110     -21.2080000   151.5962000   
340000000     -7.1165600    -99.8213000   23.3343800    118.6084000   -30.8005800   2.5596810     -21.2671100   150.9947000   
345000000     -7.0978270    -100.9431000  23.3017900    117.7862000   -30.7679400   2.4053770     -21.3336300   150.4635000   
350000000     -7.0891060    -102.1143000  23.2680500    116.9575000   -30.7349700   2.2185380     -21.3615100   149.8861000   
355000000     -7.0705870    -103.1845000  23.2327800    116.1559000   -30.7029600   2.0528290     -21.4336600   149.2886000   
360000000     -7.0539500    -104.3014000  23.2000500    115.3530000   -30.6740800   1.8815810     -21.4932700   148.7642000   
365000000     -7.0464970    -105.4190000  23.1645600    114.5478000   -30.6416300   1.7061550     -21.5421400   148.1447000   
370000000     -7.0325440    -106.5341000  23.1288900    113.7399000   -30.6100200   1.5340940     -21.5930300   147.5511000   
375000000     -7.0227770    -107.5691000  23.0949500    112.9397000   -30.5777300   1.3601670     -21.6476000   146.9560000   
380000000     -6.9985480    -108.6265000  23.0614200    112.1420000   -30.5445200   1.1752420     -21.7061700   146.4292000   
385000000     -6.9882100    -109.6877000  23.0260500    111.3472000   -30.5131400   0.9927966     -21.7608800   145.7839000   
390000000     -6.9705170    -110.7352000  22.9925300    110.5492000   -30.4808000   0.8241458     -21.8169400   145.2264000   
395000000     -6.9621110    -111.7917000  22.9560200    109.7593000   -30.4484900   0.6480718     -21.8721500   144.6028000   
400000000     -6.9472310    -112.8645000  22.9213800    108.9649000   -30.4159000   0.4541039     -21.9314100   144.1180000   
405000000     -6.9353330    -113.8539000  22.8854200    108.1887000   -30.3849300   0.2808886     -21.9935600   143.5079000   
410000000     -6.9249330    -114.9112000  22.8487300    107.4038000   -30.3501000   0.0857230     -22.0355000   143.0032000   
415000000     -6.9116430    -115.9253000  22.8125400    106.6300000   -30.3182800   -0.0970891    -22.1059400   142.4326000   
420000000     -6.9028020    -116.9169000  22.7769400    105.8513000   -30.2858400   -0.2966755    -22.1681000   141.8882000   
425000000     -6.8918350    -117.9071000  22.7435200    105.0860000   -30.2530100   -0.4822407    -22.2343200   141.4308000   
430000000     -6.8828850    -118.8773000  22.7077200    104.3141000   -30.2205100   -0.6715428    -22.3122500   140.9606000   
435000000     -6.8710370    -119.8424000  22.6717200    103.5404000   -30.1889000   -0.8678867    -22.3710400   140.4800000   
440000000     -6.8621690    -120.8136000  22.6344800    102.7839000   -30.1561000   -1.0558330    -22.4423800   140.0065000   
445000000     -6.8524270    -121.7792000  22.5981200    102.0180000   -30.1215100   -1.2566230    -22.5055700   139.5719000   
450000000     -6.8431880    -122.7344000  22.5597600    101.2597000   -30.0920000   -1.4743950    -22.5787000   139.1030000   
455000000     -6.8326870    -123.7030000  22.5239400    100.5029000   -30.0577600   -1.6502620    -22.6453300   138.6780000   
460000000     -6.8271030    -124.6205000  22.4868500    99.7503700    -30.0262400   -1.8562640    -22.7182500   138.1943000   
465000000     -6.8200160    -125.5905000  22.4498200    98.9935400    -29.9921300   -2.0598190    -22.7957200   137.7865000   
470000000     -6.8152860    -126.4853000  22.4138400    98.2539700    -29.9600100   -2.2707550    -22.8706700   137.3649000   
475000000     -6.8046060    -127.4150000  22.3775800    97.5012300    -29.9270100   -2.4640650    -22.9525400   136.9815000   
480000000     -6.7962230    -128.3155000  22.3404800    96.7581700    -29.8934500   -2.6747070    -23.0345600   136.5018000   
485000000     -6.7864030    -129.2423000  22.3036500    96.0165200    -29.8611800   -2.8820500    -23.1137100   136.1105000   
490000000     -6.7820910    -130.1411000  22.2654400    95.2820100    -29.8298200   -3.0968680    -23.1833200   135.5977000   
495000000     -6.7697200    -131.0500000  22.2289900    94.5404100    -29.7959300   -3.3031920    -23.2682200   135.2361000   
500000000     -6.7664780    -131.9282000  22.1925300    93.8173300    -29.7643300   -3.5237510    -23.3523500   134.8152000   
525000000     -6.7205340    -136.2261000  22.0065900    90.1903200    -29.6020400   -4.6080690    -23.7591800   132.7809000   
550000000     -6.6908440    -140.3948000  21.8246800    86.6217300    -29.4427200   -5.7259620    -24.1506000   130.7381000   
575000000     -6.6610740    -144.5175000  21.6376500    83.1402100    -29.2763500   -6.8417060    -24.6250600   129.1886000   
600000000     -6.6339820    -148.3109000  21.4614000    79.6799500    -29.1095100   -7.9967090    -25.0809800   127.5237000   
625000000     -6.6019990    -152.0777000  21.2788200    76.2614800    -28.9447600   -9.2029240    -25.5832700   126.0165000   
650000000     -6.5884060    -155.8255000  21.1011800    72.8800000    -28.7809200   -10.4727200   -26.0640100   124.7649000   
675000000     -6.5633120    -159.5194000  20.9232300    69.5219300    -28.6162400   -11.7971000   -26.5890000   123.7860000   
700000000     -6.5427590    -163.2605000  20.7378300    66.1884200    -28.4559700   -13.1690900   -27.1348200   122.6149000   
725000000     -6.5855790    -166.9989000  20.5387000    62.9330300    -28.3229200   -14.6201100   -27.9268600   120.4984000   
750000000     -6.6947830    -169.6988000  20.3684500    60.1461300    -28.1827700   -15.6268900   -29.1662000   122.4877000   
775000000     -6.6351830    -172.5755000  20.2292400    56.9113300    -27.9911300   -17.0074000   -29.6415300   124.5070000   
800000000     -6.6112160    -175.8443000  20.0668200    53.6933400    -27.8281200   -18.4802900   -30.2722000   125.7315000   
825000000     -6.6092840    -178.9159000  19.9023800    50.5311700    -27.6686300   -19.9444500   -30.9798200   127.3595000   
850000000     -6.6206140    178.0231000   19.7382600    47.4317500    -27.5162800   -21.4574900   -31.7617000   129.8973000   
875000000     -6.6198790    175.0441000   19.5712400    44.3791800    -27.3602500   -22.9876800   -32.4987800   133.3826000   
900000000     -6.6445430    172.0996000   19.4109200    41.3406800    -27.2109800   -24.5436700   -33.3582500   138.9249000   
925000000     -6.6521240    169.3138000   19.2532600    38.3257700    -27.0657900   -26.0845000   -34.0738600   145.3926000   
950000000     -6.6853560    166.4431000   19.0941200    35.3456800    -26.9236100   -27.6794400   -34.6474300   153.9618000   
975000000     -6.6944790    163.7295000   18.9359500    32.3776800    -26.7768700   -29.2590300   -34.7610500   162.7811000   
1000000000    -6.7184400    160.9824000   18.7812500    29.4341400    -26.6392700   -30.8965200   -34.6791800   171.7477000   
1025000000    -6.7532240    158.3095000   18.6271400    26.4940000    -26.5069900   -32.5210800   -34.3254500   -179.4306000  
1050000000    -6.7723340    155.6785000   18.4713400    23.5757300    -26.3673700   -34.1964400   -33.6769900   -171.4432000  
1075000000    -6.7815790    153.0698000   18.3153100    20.6846000    -26.2376900   -35.8867500   -32.7593400   -164.0346000  
1100000000    -6.8121170    150.4682000   18.1612600    17.7798400    -26.1140100   -37.5875400   -31.5854400   -158.2588000  
1125000000    -6.8239340    147.7516000   17.9964400    14.9213500    -25.9980200   -39.2963200   -30.2718000   -153.5256000  
1150000000    -6.8315480    144.9580000   17.8191500    12.1362800    -25.9031200   -40.9562300   -28.7025600   -150.7822000  
1175000000    -6.8749350    141.8981000   17.6262800    9.6342950     -25.8172900   -42.3252500   -26.9597400   -152.3776000  
1200000000    -7.0273930    138.8479000   17.4864000    7.5071870     -25.6789200   -43.4040600   -25.7498800   -160.1224000  
1225000000    -7.2014430    136.6930000   17.4326500    5.0974750     -25.4614200   -44.8497900   -25.6678600   -167.3064000  
1250000000    -7.3034120    134.7689000   17.3629200    2.2631010     -25.2679700   -46.7394600   -25.8653800   -169.1452000  
1275000000    -7.3591970    132.7802000   17.2656000    -0.6663163    -25.1136600   -48.6886300   -25.8251800   -169.0165000  
1300000000    -7.4062410    130.6718000   17.1500400    -3.5384840    -24.9728900   -50.6144700   -25.5944200   -168.3673000  
1325000000    -7.4633240    128.4992000   17.0312900    -6.3574490    -24.8410600   -52.5501200   -25.2201200   -167.8702000  
1350000000    -7.5105250    126.3107000   16.9119600    -9.1573890    -24.7159600   -54.4486600   -24.7456300   -167.7210000  
1375000000    -7.5666830    124.0814000   16.7874900    -11.9530000   -24.5919100   -56.3379100   -24.3036200   -168.2463000  
1400000000    -7.6188080    121.8964000   16.6635500    -14.6981000   -24.4716200   -58.2104100   -23.8892100   -168.8164000  
1425000000    -7.6697260    119.7709000   16.5426600    -17.4022600   -24.3495600   -60.0709700   -23.4479800   -169.5847000  
1450000000    -7.7371900    117.6293000   16.4236700    -20.1123700   -24.2326800   -61.9436700   -23.0401300   -170.5149000  
1475000000    -7.8073460    115.4032000   16.3037400    -22.7839100   -24.1146900   -63.8354100   -22.6537900   -171.6194000  
1500000000    -7.8687090    113.2823000   16.1877400    -25.4538900   -23.9972400   -65.7635100   -22.2780500   -172.9384000  
1525000000    -7.9394620    111.0211000   16.0744700    -28.1240100   -23.8825400   -67.6878100   -21.9093700   -174.1756000  
1550000000    -8.0032720    108.9501000   15.9594800    -30.7718300   -23.7646900   -69.5705300   -21.5963100   -175.4962000  
1575000000    -8.0754740    106.8697000   15.8498600    -33.4190400   -23.6532100   -71.5055500   -21.2660300   -176.8622000  
1600000000    -8.1527130    104.7089000   15.7433500    -36.0744900   -23.5414100   -73.4533500   -20.8936700   -178.3756000  
1625000000    -8.2315880    102.5153000   15.6337800    -38.7046700   -23.4298300   -75.3937500   -20.5910000   179.9993000   
1650000000    -8.2948110    100.4663000   15.5269800    -41.3137600   -23.3205600   -77.3266200   -20.3041600   178.5067000   
1675000000    -8.3771140    98.2767600    15.4194100    -43.9301200   -23.2104900   -79.3420600   -19.9959200   176.8356000   
1700000000    -8.4699170    96.2480900    15.3168200    -46.5724200   -23.1094200   -81.2955800   -19.7108200   174.9655000   
1725000000    -8.5512290    94.0801300    15.2134800    -49.1634600   -23.0042600   -83.2661100   -19.4460500   173.4227000   
1750000000    -8.6434060    91.9291000    15.1111300    -51.7429000   -22.8998400   -85.2750800   -19.1539300   171.7517000   
1775000000    -8.7230580    89.7548500    15.0101900    -54.3433400   -22.8037200   -87.2745100   -18.8903400   169.9917000   
1800000000    -8.8322460    87.6982900    14.9077700    -56.9212200   -22.7059700   -89.2289100   -18.6225100   167.9280000   
1825000000    -8.9218240    85.6218500    14.8122800    -59.4976400   -22.6032900   -91.2034100   -18.3707600   165.9738000   
1850000000    -9.0241450    83.5592700    14.7155800    -62.0641800   -22.5039400   -93.2014500   -18.1479000   163.9270000   
1875000000    -9.1198320    81.5638300    14.6234400    -64.6373400   -22.4006000   -95.1938200   -17.9407400   161.8940000   
1900000000    -9.2102490    79.4199200    14.5299900    -67.2365600   -22.2996300   -97.2488000   -17.7650800   159.7464000   
1925000000    -9.3019150    77.3988300    14.4387400    -69.8210500   -22.2013400   -99.2808800   -17.5584700   157.7177000   
1950000000    -9.3966960    75.2438500    14.3457300    -72.3776000   -22.1053800   -101.3372000  -17.3671600   155.6538000   
1975000000    -9.5154710    73.1675900    14.2521700    -74.9774400   -22.0116400   -103.3631000  -17.1948400   153.6422000   
2000000000    -9.6161310    70.9539000    14.1624500    -77.5507000   -21.9182000   -105.4534000  -17.0072400   151.6372000   
2025000000    -9.7394830    68.8677000    14.0726800    -80.1179700   -21.8296400   -107.5083000  -16.8499300   149.5105000   
2050000000    -9.8261430    66.7095200    13.9824100    -82.6739400   -21.7361700   -109.5949000  -16.6901500   147.3222000   
2075000000    -9.9357190    64.7084500    13.8895900    -85.2338500   -21.6499500   -111.6723000  -16.5389700   145.2016000   
2100000000    -10.0285100   62.5530200    13.7992300    -87.7920600   -21.5606600   -113.7366000  -16.3972000   143.1221000   
2125000000    -10.1493700   60.3222600    13.7096400    -90.3297300   -21.4715300   -115.8394000  -16.2586700   141.1039000   
2150000000    -10.2509000   58.1907100    13.6176900    -92.9087400   -21.3894500   -117.9181000  -16.1221400   138.8571000   
2175000000    -10.3657500   55.9726600    13.5263400    -95.4314600   -21.3076100   -120.0027000  -16.0200900   136.7020000   
2200000000    -10.4684300   53.6500500    13.4382000    -97.9462900   -21.2213300   -122.1364000  -15.8990200   134.8329000   
2225000000    -10.5669100   51.4886100    13.3471100    -100.4755000  -21.1500900   -124.2827000  -15.7246000   132.4625000   
2250000000    -10.6527000   49.0480800    13.2490000    -102.9398000  -21.0782800   -126.3283000  -15.6236600   130.0877000   
2275000000    -10.7480200   46.4925800    13.1573100    -105.3698000  -20.9996900   -128.3873000  -15.5337800   127.9141000   
2300000000    -10.8533100   43.8674200    13.0682300    -107.7556000  -20.9357000   -130.4634000  -15.4212500   125.2179000   
2325000000    -10.9544400   41.0114200    12.9928900    -110.0343000  -20.8584800   -132.3973000  -15.4053900   122.6940000   
2350000000    -11.1306800   38.0533400    12.9357400    -112.3823000  -20.7680500   -134.3767000  -15.4002900   120.5658000   
2375000000    -11.3311300   35.3684400    12.8867000    -114.8216000  -20.6775400   -136.4260000  -15.3895800   118.2685000   
2400000000    -11.5361300   32.5747600    12.8352000    -117.3423000  -20.5801700   -138.5044000  -15.3802100   116.0911000   
2425000000    -11.7547800   30.0062800    12.7821200    -119.8923000  -20.4828100   -140.6174000  -15.3789800   114.2770000   
2450000000    -11.9465200   27.3582600    12.7277100    -122.4824000  -20.3952000   -142.8015000  -15.3357400   112.4155000   
2475000000    -12.1069100   24.7463400    12.6603800    -125.0586000  -20.3070300   -144.9834000  -15.2905500   110.3343000   
2500000000    -12.2853500   22.2259900    12.5962200    -127.6240000  -20.2220500   -147.1286000  -15.2777900   108.4428000   
2525000000    -12.4649600   19.5700700    12.5327900    -130.1978000  -20.1396200   -149.3593000  -15.2519400   106.4272000   
2550000000    -12.6766600   16.7727800    12.4664400    -132.7935000  -20.0629800   -151.5823000  -15.2244300   104.2312000   
2575000000    -12.8499100   13.7754600    12.3984100    -135.3548000  -19.9841600   -153.7931000  -15.1913300   102.1216000   
2600000000    -13.0286900   10.9123400    12.3309700    -137.9155000  -19.9073700   -156.0092000  -15.1519900   100.1038000   
2625000000    -13.2007800   7.8329340     12.2608300    -140.4427000  -19.8343600   -158.1850000  -15.1762000   98.0025700    
2650000000    -13.3957900   4.8035010     12.1974900    -142.9952000  -19.7597800   -160.4407000  -15.1546100   95.9741600    
2675000000    -13.5864300   1.6080830     12.1286800    -145.5721000  -19.6968200   -162.6820000  -15.1288500   93.5509900    
2700000000    -13.7554900   -1.8159150    12.0621500    -148.0608000  -19.6339600   -164.8256000  -15.1919900   91.2112400    
2725000000    -13.9443300   -5.2207350    12.0038700    -150.6321000  -19.5553000   -167.0163000  -15.1986000   89.4137000    
2750000000    -14.1113900   -8.6040860    11.9365800    -153.1510000  -19.4925400   -169.2514000  -15.2314100   87.0294600    
2775000000    -14.2873900   -12.2835600   11.8778000    -155.6407000  -19.4170000   -171.4020000  -15.3307100   85.1843300    
2800000000    -14.5294400   -16.3620100   11.8266000    -158.2584000  -19.3346500   -173.6695000  -15.3152600   83.4211700    
2825000000    -14.6904900   -20.0364100   11.7559400    -160.8075000  -19.2781900   -175.9394000  -15.3545200   80.8312100    
2850000000    -14.8456900   -24.0236700   11.6962600    -163.2907000  -19.2111900   -178.0991000  -15.4587900   78.8486200    
2875000000    -15.0377400   -28.3428000   11.6466300    -165.8850000  -19.1330200   179.6462000   -15.4924100   77.2191200    
2900000000    -15.2111500   -32.6618300   11.5887100    -168.4937000  -19.0652800   177.3576000   -15.5368700   75.0464500    
2925000000    -15.3835500   -37.0874700   11.5293000    -171.1014000  -18.9959000   175.0613000   -15.5798500   72.9698500    
2950000000    -15.5034600   -41.4292400   11.4630900    -173.6298000  -18.9424600   172.8230000   -15.6816200   70.5815700    
2975000000    -15.6240500   -46.4382100   11.4174500    -176.1579000  -18.8654200   170.5969000   -15.8218800   68.7631000    
3000000000    -15.8077200   -51.1611900   11.3654300    -178.8376000  -18.7856400   168.2624000   -15.8665300   67.2303300    
3025000000    -15.9284300   -56.0902100   11.3103200    178.5231000   -18.7220100   165.8947000   -15.9024000   65.1932300    
3050000000    -16.0632900   -60.9841300   11.2431100    175.8888000   -18.6619500   163.5380000   -15.9763800   62.8331800    
3075000000    -16.1049400   -65.8522000   11.1822900    173.2775000   -18.6066800   161.2095000   -16.0826700   60.6791400    
3100000000    -16.1064700   -71.1963900   11.1254800    170.6565000   -18.5501700   158.8715000   -16.2001400   58.5660100    
3125000000    -16.2336600   -76.3380400   11.0651300    167.9647000   -18.4898800   156.4993000   -16.2734600   56.4657400    
3150000000    -16.2589400   -81.1326100   10.9975900    165.2942000   -18.4377000   154.1033000   -16.3519000   54.1083200    
3175000000    -16.1608500   -86.3826800   10.9314400    162.6763000   -18.3898900   151.7371000   -16.4763800   51.5363000    
3200000000    -16.0724400   -91.4612100   10.8711200    160.0326000   -18.3351300   149.3905000   -16.6358400   49.3202700    
3225000000    -16.0263200   -96.1820400   10.7994200    157.3593000   -18.2885600   146.9837000   -16.7633600   47.0666300    
3250000000    -15.9152100   -101.0921000  10.7265300    154.7365000   -18.2436300   144.5945000   -16.9222600   44.6328400    
3275000000    -15.7889200   -106.3010000  10.6601000    152.0806000   -18.2018100   142.1849000   -17.0910600   42.0169900    
3300000000    -15.6331600   -110.6188000  10.5822200    149.4641000   -18.1606900   139.8066000   -17.3055700   39.4021700    
3325000000    -15.4822800   -115.3215000  10.5076100    146.8192000   -18.1270900   137.4005000   -17.4906500   36.8197800    
3350000000    -15.2924500   -119.6217000  10.4345500    144.1911000   -18.0945700   135.0204000   -17.6855400   34.2861700    
3375000000    -15.0989400   -123.8856000  10.3563400    141.5649000   -18.0637600   132.6002000   -17.9141300   31.4231800    
3400000000    -14.9303300   -128.3821000  10.2756400    138.9253000   -18.0354800   130.2215000   -18.2032200   28.4169800    
3425000000    -14.6861600   -131.9903000  10.1927100    136.3416000   -18.0146100   127.8680000   -18.5336100   25.3719800    
3450000000    -14.4800600   -135.7875000  10.1077000    133.7638000   -17.9934200   125.5587000   -18.8839300   22.4192400    
3475000000    -14.2670800   -139.3349000  10.0233300    131.1757000   -17.9737300   123.2307000   -19.3190300   19.5989200    
3500000000    -13.9863000   -142.7394000  9.9393880     128.6355000   -17.9578000   120.8968000   -19.7522100   16.6930300    
3525000000    -13.7091000   -145.8021000  9.8514780     126.1654000   -17.9435200   118.6932000   -20.2992000   13.6556900    
3550000000    -13.3494000   -148.6828000  9.7776140     123.7378000   -17.9167900   116.4896000   -20.8581200   11.1472300    
3575000000    -12.9810300   -151.5742000  9.7090260     121.2959000   -17.8861700   114.2865000   -21.4094300   9.0655090     
3600000000    -12.6292500   -154.7327000  9.6449650     118.8273000   -17.8464100   112.0489000   -22.0101400   7.0856800     
3625000000    -12.2489100   -157.8839000  9.5890020     116.3288000   -17.8034800   109.8278000   -22.6819000   5.4683760     
3650000000    -11.8370000   -161.4260000  9.5304620     113.7552000   -17.7589500   107.4870000   -23.3663000   4.3298380     
3675000000    -11.4923800   -164.7155000  9.4603330     111.1372000   -17.7198400   105.1193000   -24.0207800   3.2610830     
3700000000    -11.1007700   -168.1378000  9.3808870     108.5204000   -17.6992900   102.6615000   -24.5324700   3.0675330     
3725000000    -10.7107700   -171.8286000  9.2710290     106.0215000   -17.7059700   100.3069000   -24.7563700   2.8577000     
3750000000    -10.3704200   -176.2378000  9.1689900     103.9131000   -17.7247100   98.2913200    -24.5967800   -1.5246520    
3775000000    -10.2276600   179.6746000   9.1581660     101.8622000   -17.6644200   96.5372600    -25.0053600   -11.1207700   
3800000000    -10.1032000   176.5823000   9.1695120     99.3183100    -17.5655500   94.3436800    -26.2034700   -19.8959800   
3825000000    -9.9572330    173.8889000   9.1456070     96.5515900    -17.4838500   91.8721400    -27.5517000   -26.9550900   
3850000000    -9.6944150    171.2832000   9.0994590     93.8103300    -17.4303900   89.3462700    -28.9623300   -34.3892900   
3875000000    -9.4914290    168.6431000   9.0435210     91.1034200    -17.3831300   86.8856600    -30.5115900   -43.6061900   
3900000000    -9.2693030    165.9998000   8.9797320     88.3679800    -17.3459800   84.3729800    -31.9355200   -55.3311300   
3925000000    -9.0492580    163.1571000   8.9121300     85.6819000    -17.3191700   81.8632500    -33.0965200   -70.9832100   
3950000000    -8.8188710    160.4978000   8.8471100     83.0254100    -17.2890500   79.3976800    -33.8955000   -91.0468200   
3975000000    -8.5948040    157.9357000   8.7764300     80.3636100    -17.2655400   76.9203600    -33.7481500   -112.8347000  
4000000000    -8.3683830    155.2547000   8.7079670     77.6777600    -17.2436400   74.4766700    -32.7605700   -131.1902000  
4025000000    -8.1644690    152.6982000   8.6411730     75.0603100    -17.2232400   72.0031200    -31.3251100   -145.7733000  
4050000000    -7.9648470    150.1614000   8.5739290     72.3935500    -17.2049700   69.5532100    -29.9069800   -156.9888000  
4075000000    -7.7735420    147.5404000   8.4950910     69.7497600    -17.1865300   67.1226000    -28.4312600   -166.5905000  
4100000000    -7.5845610    144.9860000   8.4255050     67.0974700    -17.1726300   64.6731900    -27.0255500   -173.6903000  
4125000000    -7.3975680    142.4283000   8.3473540     64.4397600    -17.1577400   62.2183000    -25.7724200   -179.3880000  
4150000000    -7.2300860    139.8426000   8.2747610     61.7826500    -17.1459700   59.7552900    -24.6863500   175.7103000   
4175000000    -7.0557710    137.3011000   8.1959160     59.1143900    -17.1298800   57.3069500    -23.7314900   170.9306000   
4200000000    -6.8910450    134.8019000   8.1136580     56.4618000    -17.1230700   54.8636400    -22.8005400   166.5515000   
4225000000    -6.7424090    132.3237000   8.0329570     53.7921400    -17.1142200   52.3985100    -21.9530700   162.6912000   
4250000000    -6.5867100    129.8848000   7.9536510     51.1147600    -17.1079700   49.9252500    -21.1878700   159.3434000   
4275000000    -6.4450620    127.4538000   7.8649380     48.4862800    -17.1010000   47.4392800    -20.4598700   155.9460000   
4300000000    -6.3119260    125.0634000   7.7826700     45.8165700    -17.1009800   44.9746400    -19.7782500   152.7776000   
4325000000    -6.1776390    122.6744000   7.6915800     43.1620300    -17.0949000   42.5173100    -19.1497300   149.6632000   
4350000000    -6.0600410    120.2900000   7.6019190     40.5375900    -17.0957800   40.0421000    -18.5505900   146.7104000   
4375000000    -5.9439240    117.9179000   7.5064150     37.8783300    -17.1015700   37.5369800    -18.0104200   143.9543000   
4400000000    -5.8315470    115.6419000   7.4084410     35.2382000    -17.1088900   35.0735700    -17.4786600   141.0590000   
4425000000    -5.7429800    113.2646000   7.3083010     32.5876200    -17.1235000   32.5634200    -16.9730600   138.2901000   
4450000000    -5.6495700    111.0913000   7.1986770     30.0205400    -17.1402300   30.0877600    -16.4653800   135.4072000   
4475000000    -5.5640220    108.9059000   7.0945540     27.4183800    -17.1626900   27.6185600    -16.0300000   132.6873000   
4500000000    -5.4944750    106.7889000   6.9811440     24.8409200    -17.1917800   25.1570500    -15.5846200   129.9641000   
4525000000    -5.4299910    104.7569000   6.8668230     22.3280000    -17.2269900   22.7421600    -15.1538700   127.1412000   
4550000000    -5.3653010    102.8451000   6.7485960     19.8489800    -17.2658500   20.3499700    -14.7436100   124.4331000   
4575000000    -5.3039990    101.0260000   6.6301970     17.4304100    -17.3058000   18.0435000    -14.3511700   121.6711000   
4600000000    -5.2396260    99.3469800    6.5163470     15.0718000    -17.3481400   15.7746200    -13.9918600   118.9440000   
4625000000    -5.1605220    97.7089800    6.4099250     12.7795200    -17.3848600   13.5956800    -13.6498900   116.1233000   
4650000000    -5.0563620    96.0837800    6.3075200     10.4802500    -17.4199200   11.4401500    -13.3298700   113.3143000   
4675000000    -4.9207480    94.5007700    6.2136560     8.2497740     -17.4489600   9.3469850     -13.0286700   110.5443000   
4700000000    -4.7896480    92.7811800    6.1375540     5.9927990     -17.4538900   7.2457670     -12.7592700   107.8833000   
4725000000    -4.6342430    91.0728600    6.0615780     3.6760560     -17.4579000   5.1386900     -12.5052100   105.2272000   
4750000000    -4.4816400    89.1342700    5.9899030     1.3564000     -17.4571500   2.9848680     -12.2682400   102.6663000   
4775000000    -4.3474570    87.1950200    5.9219330     -1.0590070    -17.4483900   0.7770681     -12.0415500   100.2046000   
4800000000    -4.2138030    85.1110500    5.8506280     -3.4559660    -17.4439400   -1.4671010    -11.8280100   97.7714500    
4825000000    -4.0891080    82.9760700    5.7794970     -5.8695710    -17.4417100   -3.7326890    -11.6187000   95.3430800    
4850000000    -3.9746680    80.8394900    5.7094250     -8.3007300    -17.4398700   -6.0335950    -11.4125500   92.9962200    
4875000000    -3.8713050    78.6506000    5.6301900     -10.7561800   -17.4427000   -8.3595140    -11.2080900   90.7829100    
4900000000    -3.7791190    76.4944900    5.5519570     -13.2114300   -17.4457700   -10.6322500   -11.0270900   88.5877300    
4925000000    -3.6974510    74.3278200    5.4722750     -15.6879500   -17.4494600   -12.9742100   -10.8639600   86.3066800    
4950000000    -3.6122960    72.2179000    5.3920380     -18.1313000   -17.4610800   -15.2992500   -10.6993800   83.9015000    
4975000000    -3.5437880    70.1084000    5.3050380     -20.5831400   -17.4724300   -17.5980900   -10.5259100   81.5390800    
5000000000    -3.4740280    67.9837700    5.2217580     -23.0462600   -17.4861100   -19.9383200   -10.3604100   79.2821500    
5025000000    -3.4142040    65.8513000    5.1353450     -25.4664900   -17.5018400   -22.2616900   -10.2060800   77.0465500    
5050000000    -3.3605390    63.8017500    5.0513660     -27.8948200   -17.5193900   -24.5629200   -10.0661200   74.6880600    
5075000000    -3.3008510    61.7525900    4.9640730     -30.3186400   -17.5376100   -26.8660200   -9.9176920    72.2840800    
5100000000    -3.2555220    59.6565200    4.8764630     -32.7602100   -17.5564700   -29.1731100   -9.7583270    70.0482700    
5125000000    -3.2074060    57.5430600    4.7885250     -35.1540600   -17.5791800   -31.4397100   -9.6078500    67.9410900    
5150000000    -3.1635360    55.4706900    4.7029030     -37.5867000   -17.6046600   -33.7333500   -9.4871280    65.9062900    
5175000000    -3.1294940    53.4203300    4.6099050     -39.9770600   -17.6278800   -36.0236000   -9.3844740    63.7504600    
5200000000    -3.0951980    51.4293300    4.5227470     -42.3501300   -17.6511700   -38.2609700   -9.2732920    61.4623000    
5225000000    -3.0639690    49.4791500    4.4322200     -44.7409100   -17.6785000   -40.4999800   -9.1619220    59.2234400    
5250000000    -3.0391590    47.4816800    4.3449240     -47.1304900   -17.7019500   -42.7597700   -9.0546980    57.0892800    
5275000000    -3.0118450    45.4884000    4.2543150     -49.4996300   -17.7331000   -44.9960200   -8.9646970    54.9776700    
5300000000    -2.9974630    43.5697800    4.1658380     -51.8646700   -17.7566500   -47.2228900   -8.8867440    52.7903000    
5325000000    -2.9792250    41.6673000    4.0820810     -54.2508400   -17.7813500   -49.4389800   -8.8075120    50.5563400    
5350000000    -2.9670940    39.7225600    3.9929020     -56.6516900   -17.8040700   -51.6773200   -8.7225280    48.3925800    
5375000000    -2.9540140    37.7188300    3.9025370     -59.0137800   -17.8324500   -53.9274700   -8.6497820    46.3479200    
5400000000    -2.9435620    35.7540500    3.8123610     -61.4107800   -17.8615600   -56.1615500   -8.5838550    44.3201000    
5425000000    -2.9299580    33.8703600    3.7149050     -63.8507500   -17.8964000   -58.4407600   -8.5278320    42.2628600    
5450000000    -2.9184230    32.0188900    3.6159110     -66.2328000   -17.9334500   -60.6761400   -8.4616030    40.2687300    
5475000000    -2.9236760    30.1869700    3.5090320     -68.6567200   -17.9789200   -62.9398700   -8.3885670    38.4508600    
5500000000    -2.9266730    28.3412300    3.3945640     -71.0352900   -18.0332900   -65.1747600   -8.3214170    36.8627400    
5525000000    -2.9345100    26.4887300    3.2631020     -73.3387000   -18.1017800   -67.3271100   -8.2379930    35.3768300    
5550000000    -2.9361840    24.7199000    3.1184020     -75.5670200   -18.1772500   -69.4256100   -8.1263990    33.8418500    
5575000000    -2.9434510    22.9902300    2.9839700     -77.5310100   -18.2536200   -71.2352900   -7.9624120    32.0928300    
5600000000    -2.9518640    21.1530000    2.8777840     -79.3955900   -18.2955500   -72.9244500   -7.7847620    30.0378400    
5625000000    -2.9803860    19.2385900    2.8063680     -81.2871200   -18.3119200   -74.7102100   -7.6480810    27.7076600    
5650000000    -3.0155450    17.2645500    2.7393780     -83.3084200   -18.3130500   -76.5877000   -7.5643360    25.1597600    
5675000000    -3.0620050    15.3818200    2.6772770     -85.4517200   -18.3204400   -78.5860000   -7.5056620    22.4924900    
5700000000    -3.1004170    13.6954600    2.5940040     -87.6134000   -18.3470400   -80.5794300   -7.4462810    19.8841600    
5725000000    -3.1528530    12.2351600    2.5062530     -89.7235600   -18.3760100   -82.5000400   -7.3895240    17.5140800    
5750000000    -3.2030870    10.9348900    2.4302050     -91.7208900   -18.3978800   -84.3718000   -7.3538320    15.3172600    
5775000000    -3.2420240    9.6761240     2.3464150     -93.7562900   -18.4179700   -86.1934000   -7.3422400    13.1659000    
5800000000    -3.2710120    8.4973930     2.2765370     -95.7156400   -18.4340900   -87.9626200   -7.3320380    10.9065600    
5825000000    -3.2743690    7.4141340     2.2066170     -97.6672100   -18.4354900   -89.7340300   -7.3180400    8.5850730     
5850000000    -3.2463620    6.2300180     2.1463770     -99.5675500   -18.4325400   -91.4647800   -7.3036780    6.4013050     
5875000000    -3.2055030    4.9601900     2.0999250     -101.4790000  -18.4083100   -93.2064100   -7.2946420    4.3411150     
5900000000    -3.1481560    3.5474690     2.0673630     -103.4304000  -18.3784800   -95.0082700   -7.3032430    2.2543850     
5925000000    -3.0714600    2.0189470     2.0387950     -105.4621000  -18.3419200   -96.8598000   -7.3207800    0.0938129     
5950000000    -2.9912170    0.3826765     2.0135490     -107.5059000  -18.3011400   -98.8002900   -7.3187540    -2.0945770    
5975000000    -2.9111030    -1.2387360    1.9856180     -109.6198000  -18.2653000   -100.7294000  -7.3117540    -4.2176680    
6000000000    -2.8505980    -2.9392760    1.9693630     -111.6816000  -18.2208800   -102.6937000  -7.3101760    -6.1704010    
6025000000    -2.8011760    -4.7598480    1.9542390     -113.8481000  -18.1731100   -104.7231000  -7.3243440    -8.0655840    
6050000000    -2.7600620    -6.6596860    1.9319440     -116.0565000  -18.1318500   -106.7948000  -7.3505410    -9.9935140    
6075000000    -2.7306870    -8.7117620    1.9161060     -118.2790000  -18.0902700   -108.9020000  -7.3665620    -11.9653100   
6100000000    -2.7011030    -10.8033200   1.8902670     -120.6104000  -18.0590100   -111.0752000  -7.3811390    -13.9212800   
6125000000    -2.6761950    -12.8606900   1.8625300     -122.8242000  -18.0302300   -113.2023000  -7.4003100    -15.8140000   
6150000000    -2.6631070    -14.9195900   1.8336690     -125.1154000  -18.0030700   -115.3460000  -7.4246550    -17.7095000   
6175000000    -2.6500740    -16.9139900   1.8020910     -127.3964000  -17.9758200   -117.4793000  -7.4532150    -19.6789800   
6200000000    -2.6500850    -18.8921700   1.7684500     -129.6422000  -17.9534400   -119.6026000  -7.4735170    -21.6858000   
6225000000    -2.6523410    -20.8579000   1.7480050     -131.9196000  -17.9235400   -121.7240000  -7.4813740    -23.6366700   
6250000000    -2.6660420    -22.8817400   1.7208750     -134.2458000  -17.8942700   -123.8496000  -7.4909250    -25.5394100   
6275000000    -2.6906770    -24.9764600   1.6902350     -136.4726000  -17.8660100   -125.9493000  -7.5046120    -27.3767100   
6300000000    -2.7106260    -27.0664100   1.6624250     -138.8038000  -17.8307600   -128.0840000  -7.5264240    -29.2358600   
6325000000    -2.7391390    -29.1345500   1.6350700     -141.1130000  -17.8017300   -130.2442000  -7.5568100    -31.1340800   
6350000000    -2.7660520    -31.1923600   1.6054920     -143.4103000  -17.7769100   -132.3977000  -7.5791820    -33.0797700   
6375000000    -2.7942120    -33.2228500   1.5763630     -145.7521000  -17.7424800   -134.5322000  -7.6008630    -35.0128600   
6400000000    -2.8306480    -35.3135600   1.5481800     -148.0761000  -17.7114400   -136.6856000  -7.6170370    -36.8596600   
6425000000    -2.8797600    -37.3596300   1.5213690     -150.3640000  -17.6753300   -138.7846000  -7.6378250    -38.6942300   
6450000000    -2.9251930    -39.3637500   1.5044590     -152.6867000  -17.6343000   -140.9659000  -7.6693250    -40.5724300   
6475000000    -2.9747480    -41.4526700   1.4828310     -155.0547000  -17.5932900   -143.1666000  -7.6973040    -42.5195500   
6500000000    -3.0297270    -43.5046500   1.4625690     -157.4175000  -17.5478700   -145.3690000  -7.7062270    -44.4849700   
6525000000    -3.0877230    -45.6335400   1.4428810     -159.8515000  -17.5062300   -147.6171000  -7.7122340    -46.3676900   
6550000000    -3.1626320    -47.8143000   1.4209280     -162.2275000  -17.4641600   -149.8616000  -7.7286330    -48.1059000   
6575000000    -3.2328300    -49.9866800   1.3948670     -164.6733000  -17.4277400   -152.1219000  -7.7572420    -49.9035500   
6600000000    -3.3129350    -52.1274300   1.3694910     -167.1073000  -17.3856200   -154.4479000  -7.7996370    -51.8101200   
6625000000    -3.4053400    -54.2314100   1.3431400     -169.5808000  -17.3477200   -156.7554000  -7.8268860    -53.8097900   
6650000000    -3.5053090    -56.3375300   1.3174150     -172.0405000  -17.3097400   -159.0881000  -7.8503870    -55.7670300   
6675000000    -3.6205590    -58.5164600   1.2838770     -174.5589000  -17.2797700   -161.4464000  -7.8791240    -57.6624800   
6700000000    -3.7415620    -60.6880600   1.2507770     -177.0382000  -17.2458100   -163.8420000  -7.9157280    -59.5978500   
6725000000    -3.8774170    -62.7883900   1.2070150     -179.6035000  -17.2248400   -166.2280000  -7.9496470    -61.6635900   
6750000000    -4.0174950    -64.8422700   1.1582560     177.9079000   -17.2082700   -168.6223000  -7.9721730    -63.7438000   
6775000000    -4.1756630    -66.8276600   1.1068290     175.4075000   -17.1905500   -170.9783000  -7.9906970    -65.7496700   
6800000000    -4.3491370    -68.7236300   1.0413610     172.9544000   -17.1858800   -173.3302000  -8.0199550    -67.7265600   
6825000000    -4.5219200    -70.4742100   0.9859264     170.5585000   -17.1819300   -175.6457000  -8.0576820    -69.6790500   
6850000000    -4.7037070    -72.0681800   0.9229643     168.1602000   -17.1782600   -177.9411000  -8.0934790    -71.7671100   
6875000000    -4.8842750    -73.4832800   0.8593923     165.8712000   -17.1781600   179.8238000   -8.1364480    -73.8660700   
6900000000    -5.0510450    -74.8073300   0.7974433     163.6303000   -17.1746700   177.6553000   -8.1769670    -76.0050100   
6925000000    -5.2070490    -75.9808700   0.7421997     161.4186000   -17.1678900   175.4985000   -8.2221970    -78.1697800   
6950000000    -5.3284270    -77.1117800   0.6890619     159.2768000   -17.1614900   173.4149000   -8.2694610    -80.3474100   
6975000000    -5.4284030    -78.1238200   0.6435937     157.2466000   -17.1390100   171.4314000   -8.3247200    -82.5155800   
7000000000    -5.4860150    -79.1907600   0.6237663     155.1514000   -17.1083900   169.4112000   -8.3897250    -84.7284900   
7025000000    -5.5049180    -80.4240600   0.6175252     153.0780000   -17.0602900   167.3900000   -8.4598350    -86.9580900   
7050000000    -5.4990510    -81.8262500   0.6251543     150.9827000   -17.0009300   165.3782000   -8.5229490    -89.1925200   
7075000000    -5.4770720    -83.4404200   0.6422686     148.8169000   -16.9295200   163.2932000   -8.5867130    -91.3426500   
7100000000    -5.4619110    -85.1771500   0.6695240     146.6672000   -16.8456800   161.1832000   -8.6681470    -93.3642700   
7125000000    -5.4437130    -87.1677600   0.7096608     144.3147000   -16.7558600   158.9824000   -8.7675650    -95.4101300   
7150000000    -5.4414880    -89.5282500   0.7510608     141.9207000   -16.6584500   156.6508000   -8.8715330    -97.5385700   
7175000000    -5.4423820    -91.9888400   0.7969782     139.4216000   -16.5634500   154.2631000   -8.9592080    -99.7187300   
7200000000    -5.4612590    -94.6000300   0.8345054     136.8493000   -16.4657600   151.7995000   -9.0431930    -101.8367000  
7225000000    -5.4998920    -97.3106600   0.8779256     134.2202000   -16.3715400   149.2779000   -9.1377620    -103.8183000  
7250000000    -5.5658700    -100.1961000  0.9170895     131.4614000   -16.2775000   146.6594000   -9.2276790    -105.7933000  
7275000000    -5.6503020    -103.1757000  0.9541810     128.6895000   -16.1891800   143.9680000   -9.3201380    -107.8519000  
7300000000    -5.7494620    -106.3918000  0.9707310     125.8535000   -16.1072500   141.2494000   -9.3996710    -109.8464000  
7325000000    -5.8750170    -109.5471000  0.9931777     122.9767000   -16.0308600   138.4482000   -9.4783050    -111.7848000  
7350000000    -6.0162760    -112.7870000  1.0071380     120.0296000   -15.9598300   135.6384000   -9.5707540    -113.7304000  
7375000000    -6.1868430    -116.1612000  1.0152040     117.0629000   -15.8932400   132.7532000   -9.6627600    -115.7060000  
7400000000    -6.3780780    -119.5049000  1.0249010     114.0336000   -15.8322800   129.8529000   -9.7429360    -117.7668000  
7425000000    -6.5927870    -123.1104000  1.0121640     111.0158000   -15.7805400   126.9028000   -9.8167030    -119.8030000  
7450000000    -6.8348130    -126.7058000  1.0040580     107.9372000   -15.7338100   123.9164000   -9.8827100    -121.7915000  
7475000000    -7.0848550    -130.4672000  0.9883093     104.8195000   -15.6927300   120.8828000   -9.9537250    -123.7985000  
7500000000    -7.3770100    -134.2515000  0.9582712     101.6795000   -15.6655300   117.8425000   -10.0211800   -125.9122000  
7525000000    -7.6907570    -138.2411000  0.9223692     98.5319800    -15.6368600   114.7690000   -10.0767900   -128.0003000  
7550000000    -8.0298660    -142.2977000  0.8795782     95.3175800    -15.6296800   111.6524000   -10.1209500   -130.1490000  
7575000000    -8.4112950    -146.4908000  0.8235976     92.1446600    -15.6243100   108.5568000   -10.1665500   -132.3168000  
7600000000    -8.8138070    -150.7473000  0.7676423     88.9532300    -15.6262100   105.4475000   -10.2034300   -134.4870000  
7625000000    -9.2511150    -155.2271000  0.6919336     85.7137300    -15.6450000   102.3047000   -10.2345900   -136.7449000  
7650000000    -9.7432190    -159.8347000  0.6111810     82.5300500    -15.6688600   99.1996200    -10.2629900   -138.9505000  
7675000000    -10.2953100   -164.6797000  0.5213261     79.3368200    -15.6998500   96.0603100    -10.2878800   -141.2358000  
7700000000    -10.8740700   -169.7791000  0.4183073     76.1441300    -15.7432600   92.9284000    -10.3168300   -143.5885000  
7725000000    -11.4932100   -175.2265000  0.3033408     72.9593300    -15.7996600   89.8385200    -10.3389000   -146.0398000  
7750000000    -12.1703600   179.1422000   0.1830781     69.8368900    -15.8679600   86.7552600    -10.3594400   -148.5553000  
7775000000    -12.9040400   173.0644000   0.0449549     66.7173700    -15.9409100   83.7009100    -10.3721900   -151.1278000  
7800000000    -13.7397600   166.5655000   -0.0998273    63.6886400    -16.0305400   80.7067300    -10.3891700   -153.7559000  
7825000000    -14.6169800   159.3584000   -0.2605484    60.6835700    -16.1247900   77.7473800    -10.4098200   -156.4640000  
7850000000    -15.5819700   151.5923000   -0.4296187    57.7621100    -16.2372600   74.8558600    -10.4366100   -159.2502000  
7875000000    -16.6098000   142.9847000   -0.6080934    54.9223300    -16.3560000   72.0835000    -10.4641600   -162.1746000  
7900000000    -17.7154000   133.4687000   -0.7938623    52.2018400    -16.4866900   69.3676100    -10.4912000   -165.1662000  
7925000000    -18.8725500   122.3648000   -0.9813112    49.6354600    -16.6250900   66.7998400    -10.5234700   -168.1611000  
7950000000    -20.0227500   109.7797000   -1.1734520    47.2055400    -16.7577100   64.3637900    -10.5648300   -171.2581000  
7975000000    -21.0187700   96.1098600    -1.3652530    44.9087000    -16.8948000   62.1087100    -10.6278400   -174.4365000  
8000000000    -21.8894200   81.2962600    -1.5435140    42.7760400    -17.0212100   59.9671400    -10.6895600   -177.7028000  
8025000000    -22.5435000   66.1486400    -1.7022690    40.8360300    -17.1300700   57.9779500    -10.7574000   178.9866000   
8050000000    -22.9776700   51.5638000    -1.8374800    38.9621300    -17.2256600   56.1231900    -10.8382600   175.7158000   
8075000000    -23.2332900   37.7945600    -1.9506100    37.2198800    -17.2882700   54.3611800    -10.9336700   172.4873000   
8100000000    -23.3422300   25.9068100    -2.0263560    35.4894100    -17.3247600   52.6184900    -11.0420900   169.2171000   
8125000000    -23.3557000   17.0179800    -2.0667090    33.7078500    -17.3299800   50.9042500    -11.1577300   166.0403000   
8150000000    -23.5347000   10.5546300    -2.0774200    31.8754600    -17.3024800   49.1104000    -11.2714400   162.9493000   
8175000000    -23.7964700   6.3482070     -2.0625350    29.8709700    -17.2505800   47.1888100    -11.3918000   159.9678000   
8200000000    -23.9153200   5.1536460     -2.0256330    27.7209200    -17.1750900   45.1045200    -11.5153000   157.0947000   
8225000000    -23.9377600   6.8433860     -1.9754560    25.2845300    -17.0861200   42.8455700    -11.6338100   154.2893000   
8250000000    -23.6694300   11.6366900    -1.9281760    22.6953100    -16.9949300   40.3629000    -11.7316400   151.5583000   
8275000000    -23.0405400   17.3045700    -1.8838710    19.8958700    -16.9056700   37.7174500    -11.8061300   148.9891000   
8300000000    -22.0600800   22.1256700    -1.8494780    16.9142700    -16.8266200   34.8703200    -11.8507000   146.5367000   
8325000000    -20.8198900   25.1557400    -1.8362400    13.8065400    -16.7598500   31.9377500    -11.8696800   144.1897000   
8350000000    -19.3975300   26.4839200    -1.8325900    10.6104200    -16.7060600   28.8684600    -11.8501100   141.8908000   
8375000000    -17.9848600   26.4482200    -1.8530920    7.3247350     -16.6670700   25.7383100    -11.7883400   139.5030000   
8400000000    -16.6979700   25.4373100    -1.8855040    4.0146270     -16.6466900   22.5693600    -11.6965400   136.9266000   
8425000000    -15.5392600   23.1606900    -1.9282970    0.5858474     -16.6315900   19.3367400    -11.5845400   134.1756000   
8450000000    -14.4531900   20.0889500    -1.9935940    -2.8738660    -16.6354700   16.0247500    -11.4658700   131.2527000   
8475000000    -13.4483200   16.8110600    -2.0731080    -6.3156770    -16.6520400   12.6861700    -11.3514400   128.1588000   
8500000000    -12.5627500   13.3929200    -2.1766820    -9.8097740    -16.6814700   9.3090530     -11.2396200   124.8298000   
8525000000    -11.7811100   9.9384320     -2.2937410    -13.3353500   -16.7382700   5.9131950     -11.1200500   121.3646000   
8550000000    -11.0738500   6.2136700     -2.4328850    -16.8126600   -16.8073900   2.5260940     -10.9933300   117.8521000   
8575000000    -10.4304700   2.4668010     -2.5965260    -20.2717000   -16.8945200   -0.8402032    -10.8689100   114.3741000   
8600000000    -9.8516940    -1.3498750    -2.7728140    -23.6871000   -16.9983100   -4.1501100    -10.7517600   110.8744000   
8625000000    -9.3185810    -4.9719420    -2.9567720    -27.0168100   -17.1160800   -7.4252760    -10.6377200   107.2597000   
8650000000    -8.8558730    -8.6353670    -3.1600900    -30.3063000   -17.2441800   -10.6511200   -10.5215200   103.5989000   
8675000000    -8.4241500    -12.3352200   -3.3747850    -33.5045700   -17.3895200   -13.7921200   -10.4051400   99.9800300    
8700000000    -8.0291290    -15.9023800   -3.6052020    -36.5888600   -17.5377900   -16.8903400   -10.2915100   96.3422400    
8725000000    -7.6640720    -19.3424200   -3.8416110    -39.6349900   -17.7011400   -19.9020300   -10.1898100   92.6292900    
8750000000    -7.3478040    -22.7841100   -4.0879100    -42.5625900   -17.8642600   -22.8231500   -10.0775600   88.8933400    
8775000000    -7.0590240    -26.1146200   -4.3343220    -45.3409000   -18.0349200   -25.6727800   -9.9614190    85.1443700    
8800000000    -6.7897120    -29.3964700   -4.5946390    -48.1107100   -18.2210400   -28.4554700   -9.8485080    81.4541600    
8825000000    -6.5429060    -32.6364400   -4.8576430    -50.7264600   -18.4015700   -31.1643700   -9.7359750    77.7863700    
8850000000    -6.3187940    -35.7078300   -5.1235020    -53.2373200   -18.5921200   -33.7425300   -9.6233400    74.0931800    
8875000000    -6.1249850    -38.7391700   -5.3885350    -55.6333500   -18.7771200   -36.2656600   -9.5145970    70.4593400    
8900000000    -5.9448030    -41.8326300   -5.6528480    -57.9400900   -18.9719500   -38.6882700   -9.4062900    66.8369900    
8925000000    -5.7902670    -44.7773100   -5.9286430    -60.0816700   -19.1651700   -41.0083400   -9.3032060    63.2213900    
8950000000    -5.6457080    -47.7106100   -6.1904980    -62.1271400   -19.3543400   -43.1868800   -9.1991140    59.6532600    
8975000000    -5.5254230    -50.5252300   -6.4461930    -64.0075800   -19.5457100   -45.2880600   -9.0970950    56.1385100    
9000000000    -5.4315760    -53.3727500   -6.6959620    -65.7422200   -19.7277500   -47.2240700   -9.0053570    52.6329700    
9025000000    -5.3419450    -56.1153000   -6.9202310    -67.3403700   -19.8930000   -49.0772400   -8.9146240    49.1458500    
9050000000    -5.2764670    -58.7675600   -7.1258050    -68.7634000   -20.0531000   -50.8124200   -8.8224900    45.6518700    
9075000000    -5.2282410    -61.2536800   -7.3108310    -70.1166800   -20.1899600   -52.3765300   -8.7298530    42.2975000    
9100000000    -5.2048130    -63.6534300   -7.4635210    -71.3455500   -20.3003200   -53.8663300   -8.6457010    39.0520900    
9125000000    -5.1999400    -65.9847300   -7.5897640    -72.5348200   -20.3891800   -55.3218000   -8.5777230    35.7974800    
9150000000    -5.2117620    -68.2193500   -7.6639120    -73.8245500   -20.4410600   -56.7596200   -8.5141170    32.5398100    
9175000000    -5.2291020    -70.1709700   -7.6989570    -75.1010700   -20.4638000   -58.2090600   -8.4357390    29.3086200    
9200000000    -5.2607710    -72.0059800   -7.7149720    -76.5775800   -20.4555400   -59.7311400   -8.3526760    26.2339800    
9225000000    -5.3010330    -73.7005400   -7.6965530    -78.2102400   -20.4146200   -61.3843300   -8.2749050    23.3216000    
9250000000    -5.3239030    -75.1806700   -7.6587760    -80.0724600   -20.3533900   -63.2193400   -8.1997150    20.4491000    
9275000000    -5.3328310    -76.4430600   -7.6077420    -82.2264200   -20.2788900   -65.2571000   -8.1208970    17.6237300    
9300000000    -5.3406870    -77.4631700   -7.5575440    -84.6452700   -20.1943300   -67.5130200   -8.0306580    14.9175200    
9325000000    -5.3127540    -78.3389700   -7.5157070    -87.2683100   -20.0997800   -69.9640600   -7.9349620    12.2601500    
9350000000    -5.2694480    -79.1958800   -7.4893610    -90.1771500   -20.0198900   -72.6677900   -7.8324390    9.6259240     
9375000000    -5.1981160    -80.0701900   -7.4842710    -93.2135900   -19.9542200   -75.5395900   -7.7160950    6.9887690     
9400000000    -5.0909020    -80.8943400   -7.5103240    -96.4175300   -19.9087200   -78.6027000   -7.5885060    4.3589670     
9425000000    -4.9654000    -81.8351800   -7.5522430    -99.7164500   -19.8833100   -81.7464800   -7.4562630    1.8088430     
9450000000    -4.8264680    -82.8324000   -7.6343020    -103.0927000  -19.8749500   -84.9461000   -7.3207740    -0.7520529    
9475000000    -4.6755360    -84.0403000   -7.7395880    -106.4157000  -19.9010600   -88.2392600   -7.1883350    -3.3763510    
9500000000    -4.5058930    -85.3975800   -7.8712510    -109.7872000  -19.9382100   -91.5179600   -7.0489470    -6.0108700    
9525000000    -4.3447270    -86.7573300   -8.0413440    -113.1197000  -20.0046200   -94.8003200   -6.9038000    -8.6929510    
9550000000    -4.1770000    -88.2112900   -8.2081410    -116.3673000  -20.0851800   -98.0245700   -6.7633850    -11.3672900   
9575000000    -4.0258550    -89.7787300   -8.4101990    -119.4443000  -20.1782900   -101.2100000  -6.6219580    -14.0342500   
9600000000    -3.8843750    -91.3835100   -8.6256600    -122.5735000  -20.2883800   -104.3304000  -6.4826380    -16.7143500   
9625000000    -3.7413110    -93.1057200   -8.8494980    -125.6430000  -20.4033900   -107.4089000  -6.3491380    -19.3938700   
9650000000    -3.6066330    -94.8971200   -9.0762960    -128.4889000  -20.5289500   -110.3956000  -6.2218100    -22.0748100   
9675000000    -3.4905470    -96.6477300   -9.3303290    -131.3131000  -20.6643600   -113.3916000  -6.0980510    -24.8207100   
9700000000    -3.3806940    -98.4714300   -9.5822110    -133.9692000  -20.8061100   -116.2465000  -5.9743560    -27.5298600   
9725000000    -3.2800630    -100.3151000  -9.8395460    -136.6677000  -20.9429800   -119.0710000  -5.8469900    -30.1898400   
9750000000    -3.1868880    -102.1942000  -10.1070300   -139.0533000  -21.0971900   -121.8145000  -5.7328060    -32.8404100   
9775000000    -3.0926170    -104.0415000  -10.3537900   -141.5323000  -21.2450200   -124.4953000  -5.6198430    -35.4219100   
9800000000    -3.0121250    -105.8727000  -10.6189900   -143.8542000  -21.3877200   -127.1197000  -5.5120020    -38.0414600   
9825000000    -2.9344380    -107.7136000  -10.8922300   -146.0884000  -21.5434800   -129.6531000  -5.4112980    -40.6285700   
9850000000    -2.8672850    -109.4991000  -11.1332200   -148.1731000  -21.6845800   -132.1238000  -5.3070830    -43.1937800   
9875000000    -2.8141790    -111.3287000  -11.4065000   -150.2405000  -21.8219600   -134.6147000  -5.2130540    -45.8067800   
9900000000    -2.7596400    -113.1211000  -11.6492700   -152.1850000  -21.9612500   -136.9982000  -5.1214880    -48.3824300   
9925000000    -2.7104560    -114.9311000  -11.8931200   -154.0409000  -22.0965400   -139.3270000  -5.0262800    -50.9772600   
9950000000    -2.6642570    -116.6805000  -12.1238100   -155.9369000  -22.2212600   -141.6279000  -4.9319070    -53.5831600   
9975000000    -2.6331770    -118.4000000  -12.3560000   -157.6286000  -22.3554900   -143.8412000  -4.8405720    -56.1107400   
10000000000   -2.5974500    -120.1303000  -12.5874600   -159.1963000  -22.4655400   -146.0381000  -4.7469870    -58.5846500   
10025000000   -2.5758130    -121.8801000  -12.7997200   -160.8026000  -22.5690900   -148.1531000  -4.6611020    -61.0089100   
10050000000   -2.5482460    -123.6417000  -12.9897800   -162.3665000  -22.6688400   -150.2653000  -4.5789240    -63.4056200   
10075000000   -2.5309880    -125.2169000  -13.1466400   -163.8542000  -22.7527600   -152.3524000  -4.5056750    -65.8557600   
10100000000   -2.5100010    -126.7814000  -13.3127000   -165.2945000  -22.8245700   -154.3897000  -4.4329930    -68.2996100   
10125000000   -2.5032420    -128.3598000  -13.4395300   -166.8605000  -22.8827600   -156.4324000  -4.3534390    -70.7035000   
10150000000   -2.4935950    -129.9284000  -13.5724900   -168.3614000  -22.9269600   -158.4974000  -4.2743330    -73.0829800   
10175000000   -2.4824140    -131.4622000  -13.6710100   -170.0632000  -22.9567000   -160.5450000  -4.1996580    -75.3993900   
10200000000   -2.4668310    -132.8697000  -13.7756500   -171.5930000  -22.9611400   -162.6714000  -4.1238870    -77.6921700   
10225000000   -2.4584540    -134.3118000  -13.8428700   -173.4963000  -22.9731400   -164.8734000  -4.0523610    -80.0010500   
10250000000   -2.4385050    -135.7302000  -13.9332700   -175.4438000  -22.9523300   -167.1174000  -3.9846530    -82.2524600   
10275000000   -2.4255870    -137.1963000  -13.9809200   -177.6052000  -22.9284500   -169.5050000  -3.9068180    -84.5561600   
10300000000   -2.3967110    -138.6305000  -14.1021000   -179.5721000  -22.9115900   -171.9673000  -3.8385170    -86.8580800   
10325000000   -2.3657750    -139.8900000  -14.1889100   178.1323000   -22.8858500   -174.4604000  -3.7661710    -89.1237200   
10350000000   -2.3419840    -141.2476000  -14.2940900   175.8879000   -22.8611900   -177.0799000  -3.6932010    -91.4038300   
10375000000   -2.3134230    -142.6363000  -14.4322300   173.5192000   -22.8341200   -179.7496000  -3.6191810    -93.6697400   
10400000000   -2.2717810    -144.0566000  -14.5508000   171.1722000   -22.8040300   177.5061000   -3.5416200    -95.9284700   
10425000000   -2.2380280    -145.4316000  -14.7128800   168.9771000   -22.7826400   174.7728000   -3.4698460    -98.1479600   
10450000000   -2.2042730    -146.8152000  -14.8814800   166.6322000   -22.7644600   171.9773000   -3.4002290    -100.3154000  
10475000000   -2.1714800    -148.2585000  -15.0414600   164.5155000   -22.7398200   169.1832000   -3.3371990    -102.5515000  
10500000000   -2.1336840    -149.8168000  -15.2193600   162.1780000   -22.7209300   166.2755000   -3.2756690    -104.8648000  
10525000000   -2.0983570    -151.2969000  -15.4175600   160.2213000   -22.6966900   163.4596000   -3.2128160    -107.1463000  
10550000000   -2.0668330    -152.8161000  -15.6194900   158.2043000   -22.6742300   160.5872000   -3.1441940    -109.4229000  
10575000000   -2.0373120    -154.2405000  -15.7859700   156.3050000   -22.6475500   157.7437000   -3.0910340    -111.6572000  
10600000000   -2.0080920    -155.7535000  -15.9680700   154.5262000   -22.6073700   154.8868000   -3.0340850    -113.8904000  
10625000000   -1.9938850    -157.3049000  -16.1527900   152.8998000   -22.5648700   151.9671000   -2.9794980    -116.2148000  
10650000000   -1.9672090    -158.8983000  -16.3278600   151.2614000   -22.5214700   149.0099000   -2.9305810    -118.4977000  
10675000000   -1.9480870    -160.3937000  -16.4945400   149.6315000   -22.4666500   146.1217000   -2.8786640    -120.6908000  
10700000000   -1.9361240    -161.8580000  -16.6336400   148.2160000   -22.3995200   143.1847000   -2.8353150    -122.8889000  
10725000000   -1.9371120    -163.4224000  -16.7918000   146.8464000   -22.3254800   140.1938000   -2.8017260    -125.0918000  
10750000000   -1.9317620    -165.0245000  -16.9057200   145.4481000   -22.2392900   137.1575000   -2.7696840    -127.2693000  
10775000000   -1.9269080    -166.5584000  -17.0000000   144.1998000   -22.1460700   134.1121000   -2.7332680    -129.4011000  
10800000000   -1.9250860    -168.1708000  -17.0888500   142.9716000   -22.0352600   131.0238000   -2.6980600    -131.4189000  
10825000000   -1.9369760    -169.7188000  -17.1293600   141.7594000   -21.9142700   127.8906000   -2.6539470    -133.4507000  
10850000000   -1.9564280    -171.2271000  -17.1748700   140.6360000   -21.7838800   124.7921000   -2.6162770    -135.4292000  
10875000000   -1.9725430    -172.7981000  -17.1483600   139.4840000   -21.6166300   121.6303000   -2.5618890    -137.3423000  
10900000000   -2.0034730    -174.3438000  -17.1042400   138.2059000   -21.4311700   118.3598000   -2.4935210    -139.3132000  
10925000000   -2.0348630    -175.8828000  -17.0123000   136.7870000   -21.2164100   115.0064000   -2.4149800    -141.3376000  
10950000000   -2.0751170    -177.3705000  -16.8963100   135.4397000   -20.9707900   111.4949000   -2.3193950    -143.4359000  
10975000000   -2.1263300    -178.8026000  -16.7198600   133.6602000   -20.6940900   107.7705000   -2.2211060    -145.6100000  
11000000000   -2.1854990    179.6669000   -16.5081400   131.4197000   -20.3983100   103.7910000   -2.1312640    -147.8370000  
11025000000   -2.2646230    178.2572000   -16.2986800   129.0117000   -20.0826200   99.5795700    -2.0415000    -150.1998000  
11050000000   -2.3326530    176.7367000   -16.0291200   126.0376000   -19.7426000   94.9231600    -1.9577470    -152.7880000  
11075000000   -2.4172970    175.4615000   -15.7969700   122.8846000   -19.4110200   90.1020400    -1.8823950    -155.4613000  
11100000000   -2.5065380    174.3204000   -15.5534600   119.0987000   -19.0614900   84.9118100    -1.8098010    -158.1811000  
11125000000   -2.6025490    173.2917000   -15.3193800   114.9946000   -18.7092700   79.3554800    -1.7646820    -160.9559000  
11150000000   -2.7215950    172.4163000   -15.0858000   110.2899000   -18.3605600   73.5038700    -1.7363380    -163.8396000  
11175000000   -2.8338990    171.5685000   -14.8901100   105.3005000   -18.0173000   67.1474400    -1.7347100    -166.9327000  
11200000000   -2.9327110    170.8842000   -14.7298800   99.4524100    -17.6968400   60.4145700    -1.7589790    -170.0758000  
11225000000   -3.0133750    170.4269000   -14.6237100   93.4034700    -17.3914200   53.3346100    -1.8116910    -173.2586000  
11250000000   -3.0760360    170.2049000   -14.5900300   86.7406800    -17.1209600   45.7917200    -1.9121230    -176.5210000  
11275000000   -3.1194350    170.0740000   -14.6345600   79.6939100    -16.8975400   37.8914300    -2.0661430    -179.7181000  
11300000000   -3.1354940    170.0208000   -14.7626500   72.2323500    -16.7140300   29.5975500    -2.2666240    177.1539000   
11325000000   -3.1063370    169.8254000   -15.0030300   64.3722900    -16.6043200   20.9026700    -2.5281490    174.1972000   
11350000000   -3.0326090    169.6293000   -15.3788800   56.2550400    -16.5656800   12.0130300    -2.8406960    171.6091000   
11375000000   -2.9293040    169.3347000   -15.8789300   48.0080500    -16.6029600   2.9436450     -3.1960090    169.4599000   
11400000000   -2.8048680    168.8512000   -16.5559900   39.5919600    -16.7223600   -6.2692560    -3.5864640    167.8868000   
11425000000   -2.6770820    168.1436000   -17.3928100   31.0310600    -16.9149900   -15.5117100   -3.9803150    167.0130000   
11450000000   -2.5528410    167.2264000   -18.4433100   22.9009800    -17.1848700   -24.8120000   -4.3447590    166.7535000   
11475000000   -2.4349250    166.1323000   -19.7825700   15.1297000    -17.5236200   -34.0591300   -4.6487020    167.1255000   
11500000000   -2.3437170    164.8222000   -21.4401600   8.4866030     -17.9406300   -43.3385700   -4.8728980    168.0944000   
11525000000   -2.2795290    163.4941000   -23.5948200   5.0236150     -18.4576200   -52.6674900   -4.9920230    169.4950000   
11550000000   -2.2374630    162.2155000   -25.9058100   8.6461110     -19.1099200   -61.8876700   -4.9860760    171.1637000   
11575000000   -2.2011730    161.1748000   -27.0055900   21.0058100    -19.9230600   -70.6980100   -4.7943130    172.7412000   
11600000000   -2.1615620    160.2907000   -26.0718000   28.2451500    -20.9061300   -78.2602800   -4.4196530    173.5891000   
11625000000   -2.0796600    159.3562000   -25.0848100   23.5841500    -21.9144600   -84.2496000   -3.9673610    173.2275000   
11650000000   -1.9693140    158.3522000   -24.8635900   13.4384800    -22.7983200   -88.9423200   -3.5573110    171.7121000   
11675000000   -1.8528900    157.1729000   -25.5143300   2.3244270     -23.5670300   -93.3012000   -3.2498070    169.4400000   
11700000000   -1.7611450    155.8840000   -26.6230200   -7.5639430    -24.2751100   -97.4736900   -3.0127240    166.9050000   
11725000000   -1.6849140    154.4604000   -28.2276300   -17.1368100   -24.9424800   -101.6083000  -2.8342670    164.2953000   
11750000000   -1.6215040    152.9023000   -30.2546900   -25.3546000   -25.5943600   -105.7081000  -2.7200850    161.7487000   
11775000000   -1.5802500    151.3246000   -32.6196000   -32.1760800   -26.2561300   -109.4690000  -2.6583190    159.2455000   
11800000000   -1.5335410    149.8223000   -35.5146800   -38.8827100   -26.8777500   -112.9095000  -2.6303110    156.7118000   
11825000000   -1.4979440    148.3576000   -38.9716700   -42.4327000   -27.4798400   -116.1243000  -2.6227260    154.3042000   
11850000000   -1.4787270    146.9594000   -44.4374500   -42.9361100   -28.0451700   -119.0838000  -2.6250270    152.1056000   
11875000000   -1.4587830    145.4670000   -52.8499700   -44.4959200   -28.5708200   -121.8408000  -2.6569550    150.0469000   
11900000000   -1.4456050    144.0899000   -55.5980100   104.5009000   -29.0577000   -124.3923000  -2.7029240    148.0297000   
11925000000   -1.4310390    142.6717000   -47.2039000   108.2383000   -29.5026700   -126.8311000  -2.7428330    146.0293000   
11950000000   -1.4221240    141.3207000   -43.4833700   111.3791000   -29.9323200   -129.2467000  -2.7765590    144.1552000   
11975000000   -1.4102770    140.0310000   -41.4542600   110.1125000   -30.3072700   -131.5037000  -2.8102130    142.4958000   
12000000000   -1.4013320    138.7025000   -39.6832500   108.7919000   -30.6483000   -133.6717000  -2.8523920    140.8777000   
12025000000   -1.3914970    137.3777000   -38.6278400   108.0485000   -30.9471800   -135.9491000  -2.8909050    139.1925000   
12050000000   -1.3877410    136.0916000   -37.7116800   106.2585000   -31.2277200   -138.1486000  -2.9189670    137.5181000   
12075000000   -1.3884540    134.8448000   -36.9570500   105.8709000   -31.4783000   -140.3510000  -2.9315930    135.9120000   
12100000000   -1.3770960    133.6118000   -36.4400400   104.8099000   -31.7060300   -142.6664000  -2.9517780    134.3797000   
12125000000   -1.3760560    132.3147000   -36.0227500   103.3036000   -31.8974600   -144.9877000  -2.9652220    132.8750000   
12150000000   -1.3763970    131.0510000   -35.6198600   102.7670000   -32.0716000   -147.3860000  -2.9697940    131.2736000   
12175000000   -1.3696740    129.7077000   -35.2561600   101.4548000   -32.2480000   -149.9115000  -2.9736240    129.7026000   
12200000000   -1.3607360    128.4237000   -34.7878800   101.3855000   -32.4012800   -152.4488000  -2.9638660    128.1755000   
12225000000   -1.3560260    127.2173000   -34.4188200   100.4779000   -32.5536300   -155.0350000  -2.9588450    126.6528000   
12250000000   -1.3606520    125.9644000   -34.0628000   100.0514000   -32.7058100   -157.7048000  -2.9502190    125.1959000   
12275000000   -1.3563630    124.7194000   -33.8093300   98.0356700    -32.8419500   -160.4092000  -2.9377600    123.6995000   
12300000000   -1.3518470    123.4850000   -33.6886600   98.6151900    -32.9826300   -163.0988000  -2.9322670    122.2018000   
12325000000   -1.3531090    122.2202000   -33.2583200   97.0839600    -33.1382100   -165.8787000  -2.9258800    120.6708000   
12350000000   -1.3523860    120.9771000   -33.0891200   96.1899600    -33.2829200   -168.6297000  -2.9129300    119.0786000   
12375000000   -1.3485050    119.7742000   -32.8877400   94.5892300    -33.4250900   -171.3526000  -2.8976010    117.5128000   
12400000000   -1.3554230    118.4970000   -32.6799100   92.9759000    -33.5706100   -174.0731000  -2.8758400    115.9879000   
12425000000   -1.3576000    117.2902000   -32.4413300   92.3762100    -33.7271200   -176.7539000  -2.8588350    114.3889000   
12450000000   -1.3575270    115.9963000   -32.1953600   90.9735600    -33.8981900   -179.4666000  -2.8493690    112.7893000   
12475000000   -1.3623070    114.8002000   -32.1348200   89.6494600    -34.0642800   178.0074000   -2.8321760    111.1955000   
12500000000   -1.3671690    113.5606000   -31.9282900   88.1829500    -34.2479200   175.4913000   -2.8145790    109.6127000   
12525000000   -1.3681520    112.3745000   -31.9276100   86.3701900    -34.4106100   173.1277000   -2.7953450    108.0433000   
12550000000   -1.3752080    111.1939000   -31.9013100   85.8575200    -34.5778800   170.8967000   -2.7879660    106.4407000   
12575000000   -1.3723670    109.9527000   -31.7746100   84.7578800    -34.7367800   168.6021000   -2.7824500    104.7606000   
12600000000   -1.3783440    108.7164000   -31.7058500   83.9151900    -34.8985100   166.5236000   -2.7761120    103.0215000   
12625000000   -1.3848570    107.5078000   -31.6629200   82.2836500    -35.0430800   164.5698000   -2.7619700    101.2536000   
12650000000   -1.3959110    106.2845000   -31.6739900   82.1223400    -35.1934700   162.6505000   -2.7494030    99.4968600    
12675000000   -1.4056390    105.0213000   -31.6706600   81.2653000    -35.3346700   160.8108000   -2.7404730    97.7618900    
12700000000   -1.4110100    103.8788000   -31.6423400   81.0763200    -35.4499100   159.1517000   -2.7355690    95.9741300    
12725000000   -1.4145890    102.6480000   -31.7195400   80.3933700    -35.5540800   157.4762000   -2.7371600    94.1675400    
12750000000   -1.4172800    101.4443000   -31.5776300   80.6519800    -35.6377800   155.8008000   -2.7286670    92.3352900    
12775000000   -1.4354180    100.2614000   -31.5173500   80.3848600    -35.7307500   154.2486000   -2.7244520    90.5051900    
12800000000   -1.4408280    99.0421100    -31.4897800   79.9703100    -35.7894900   152.7112000   -2.7253340    88.7058600    
12825000000   -1.4541570    97.8224700    -31.3956500   79.1261000    -35.8476300   151.1837000   -2.7283290    86.8664700    
12850000000   -1.4690030    96.5993300    -31.1101900   79.5533800    -35.8981500   149.6675000   -2.7288940    84.9712600    
12875000000   -1.4806000    95.4700700    -31.0554000   79.3550500    -35.9338800   148.2811000   -2.7391420    83.1270100    
12900000000   -1.4941550    94.2553600    -30.9422600   79.6764300    -35.9616500   146.9086000   -2.7467650    81.2702300    
12925000000   -1.5044440    93.0312100    -30.7660300   79.6080600    -35.9720000   145.4511000   -2.7647240    79.3707800    
12950000000   -1.5248480    91.8285500    -30.5449800   79.4857600    -35.9770200   144.2693000   -2.7947590    77.4152800    
12975000000   -1.5363730    90.7083300    -30.3788600   79.5173300    -35.9679200   142.9850000   -2.8123770    75.4317100    
13000000000   -1.5595380    89.4354800    -30.1562600   78.7534500    -35.9395200   141.7888000   -2.8408880    73.4944900    
13025000000   -1.5837710    88.2157100    -29.9247700   78.4701600    -35.8933800   140.7243000   -2.8713630    71.6217300    
13050000000   -1.5886030    86.9944100    -29.6579600   77.9897100    -35.8212300   139.6098000   -2.9116170    69.7381700    
13075000000   -1.6138880    85.8164900    -29.3573700   77.8221700    -35.7421000   138.6618000   -2.9526440    67.8748100    
13100000000   -1.6193100    84.7040600    -29.0759400   77.0898400    -35.6069200   137.4905000   -2.9879590    66.0719800    
13125000000   -1.6450500    83.5816100    -28.8187700   76.1284800    -35.4717300   136.4324000   -3.0308610    64.2874800    
13150000000   -1.6732420    82.3709800    -28.5390800   75.4158200    -35.3012300   135.2512000   -3.0883500    62.5417800    
13175000000   -1.6873120    81.2140800    -28.2628600   74.6910500    -35.0942500   133.9079000   -3.1386810    60.7145500    
13200000000   -1.7110600    80.0147600    -27.9544500   73.4776800    -34.8884300   132.4659000   -3.1846290    58.8701900    
13225000000   -1.7201150    78.8938900    -27.6596700   72.4465900    -34.6420600   130.8930000   -3.2256660    57.0737400    
13250000000   -1.7414440    77.6535000    -27.3379000   71.1016900    -34.3979500   129.0465000   -3.2815970    55.2815200    
13275000000   -1.7556360    76.4346400    -27.1196500   69.7709700    -34.1554400   127.1539000   -3.3390590    53.4561700    
13300000000   -1.7785060    75.1254000    -26.7832500   68.7975700    -33.9078600   124.9149000   -3.3802700    51.5911500    
13325000000   -1.7821470    74.0155100    -26.5261400   67.3834800    -33.6802700   122.7215000   -3.4302900    49.7385800    
13350000000   -1.7874860    72.9342300    -26.1877800   66.2328900    -33.4431100   120.3416000   -3.4851500    47.9154000    
13375000000   -1.8105770    71.6954400    -25.8874100   64.1956600    -33.2282400   117.9099000   -3.5505290    46.0607900    
13400000000   -1.8246180    70.4726300    -25.5596300   62.6517100    -33.0150300   115.3829000   -3.6056310    44.1900300    
13425000000   -1.8486170    69.2631100    -25.3073600   61.1322100    -32.8259700   112.8540000   -3.6582370    42.3658800    
13450000000   -1.8662920    68.0281400    -25.0148500   59.6357200    -32.6367800   110.2400000   -3.7217540    40.5743700    
13475000000   -1.8800040    66.7978600    -24.7143700   57.3320300    -32.4553900   107.6297000   -3.8022910    38.7193000    
13500000000   -1.9037940    65.4325300    -24.4113300   55.4525200    -32.2893600   104.9446000   -3.8804580    36.7771800    
13525000000   -1.9396550    64.1812500    -24.1031400   53.3298300    -32.1318200   102.3391000   -3.9403860    34.8546100    
13550000000   -1.9573320    62.8183600    -23.8828200   51.0392300    -31.9729600   99.7178400    -4.0027490    33.0634500    
13575000000   -1.9756410    61.5132800    -23.6316000   48.9965600    -31.8282300   97.1442600    -4.0765980    31.4050200    
13600000000   -2.0017770    60.1555300    -23.3728400   46.6329300    -31.6680800   94.5848200    -4.1558410    29.7051600    
13625000000   -2.0388020    58.9326700    -23.0888900   44.5169900    -31.5237200   92.0409800    -4.2231450    27.9717800    
13650000000   -2.0713660    57.5480700    -22.8550000   41.8313700    -31.3804200   89.5046100    -4.2873790    26.3660600    
13675000000   -2.1090760    56.3057900    -22.6467000   39.4582600    -31.2355400   86.9929400    -4.3439690    24.8613500    
13700000000   -2.1430870    54.9727500    -22.4208100   36.8246600    -31.0759200   84.4824300    -4.4119630    23.3903800    
13725000000   -2.1885720    53.6746000    -22.1821900   34.4372800    -30.9216000   81.9442000    -4.4614340    21.8235900    
13750000000   -2.2390900    52.2892600    -21.9699800   31.6727100    -30.7634800   79.4174100    -4.4909180    20.2997200    
13775000000   -2.2841310    50.8798900    -21.8190300   29.1432900    -30.6097000   76.8398100    -4.5029750    18.8788900    
13800000000   -2.3400190    49.5717100    -21.6264500   26.6270400    -30.4566500   74.2466700    -4.5046920    17.4628100    
13825000000   -2.3925430    48.1549600    -21.4810200   23.6523700    -30.2969000   71.4935200    -4.4973750    15.8945200    
13850000000   -2.4472010    46.7674100    -21.3753300   20.7994300    -30.1471700   68.7633300    -4.4582810    14.2149100    
13875000000   -2.4999140    45.3646700    -21.2218700   17.7655300    -30.0182100   65.9628400    -4.3946630    12.5184300    
13900000000   -2.5588820    44.0027500    -21.1366500   14.8400400    -29.9065300   63.0884700    -4.3152340    10.8293200    
13925000000   -2.6229390    42.7127900    -21.1341600   11.8051000    -29.8236500   60.2542700    -4.2415660    8.9948450     
13950000000   -2.6935700    41.3071600    -21.1256000   8.7069890     -29.7754800   57.4395900    -4.1517940    6.9022120     
13975000000   -2.7698720    39.8810500    -21.2292300   5.4459910     -29.7672200   54.7014800    -4.0352780    4.5832230     
14000000000   -2.8501580    38.4652000    -21.3935700   2.6237840     -29.7989600   52.2293200    -3.8917160    2.1097390     
14025000000   -2.9213330    37.0930700    -21.6728300   0.3589452     -29.8804800   50.2994000    -3.7515030    -0.5475498    
14050000000   -2.9932320    35.6690500    -22.0487600   -1.1312830    -29.9662100   49.0584400    -3.6194560    -3.5604640    
14075000000   -3.0913380    34.1853500    -22.5040700   -1.2905600    -30.0354200   48.5204800    -3.4896090    -6.9601010    
14100000000   -3.1883790    32.5882300    -22.9762100   0.6402488     -30.0162000   48.8063300    -3.3759020    -10.7947900   
14125000000   -3.2810080    30.9791600    -23.2105200   4.2486370     -29.8406200   49.5940700    -3.2928220    -14.8742100   
14150000000   -3.3763600    29.3930300    -23.0776900   8.9688810     -29.4913400   50.4792100    -3.2661230    -19.0709600   
14175000000   -3.4885490    27.8834200    -22.5332000   13.9360400    -28.9686700   50.8990400    -3.2976410    -23.3387800   
14200000000   -3.6258190    26.3265200    -21.6630100   17.0645700    -28.3386000   50.4309000    -3.3842630    -27.7028700   
14225000000   -3.7712370    24.6839800    -20.6412800   18.1723600    -27.6559600   48.9727200    -3.5068920    -32.0580100   
14250000000   -3.9334180    23.0371900    -19.6633600   17.2560700    -26.9920200   46.7345500    -3.6624670    -36.2100200   
14275000000   -4.1090600    21.4343800    -18.7220300   15.2480000    -26.3776800   43.8695300    -3.8398960    -40.1141100   
14300000000   -4.2911100    19.9055200    -17.8924300   12.3738200    -25.7908100   40.6209900    -4.0465440    -43.8437200   
14325000000   -4.5009590    18.3886400    -17.1513700   9.1067910     -25.2538100   37.0184100    -4.2644900    -47.5648400   
14350000000   -4.7290990    16.8367100    -16.4838900   5.4352960     -24.7612200   33.2634200    -4.4877710    -51.2680700   
14375000000   -4.9568340    15.3425400    -15.8741200   1.5806980     -24.3048600   29.3714500    -4.6974700    -54.8869300   
14400000000   -5.2079090    13.8866800    -15.3461700   -2.4605520    -23.8832700   25.3722700    -4.9090820    -58.3562600   
14425000000   -5.4850810    12.4522200    -14.8759100   -6.3935090    -23.4917700   21.3657800    -5.1260870    -61.7787600   
14450000000   -5.7879680    11.1616900    -14.4236500   -10.5447700   -23.1194600   17.2825700    -5.3388920    -65.2338700   
14475000000   -6.1034260    9.9245840     -14.0025400   -14.7327400   -22.7639100   13.2204000    -5.5426810    -68.7185300   
14500000000   -6.4477640    8.8076630     -13.6063500   -18.9104200   -22.4237300   9.0977710     -5.7395250    -72.1153100   
14525000000   -6.8178850    7.7968730     -13.2412900   -23.0318400   -22.1039500   4.9410860     -5.9432850    -75.5296600   
14550000000   -7.2056010    6.9975500     -12.8853100   -27.2563700   -21.7910200   0.7600680     -6.1398940    -78.9726400   
14575000000   -7.6226250    6.4106620     -12.5819500   -31.4592300   -21.4952300   -3.4624520    -6.3453080    -82.4991100   
14600000000   -8.0847940    6.0941920     -12.2726500   -35.7674000   -21.2088400   -7.6932580    -6.5293110    -86.0132600   
14625000000   -8.5563100    5.9139770     -11.9911900   -40.0005600   -20.9311200   -11.9721700   -6.7246040    -89.5175900   
14650000000   -9.0418060    6.0909710     -11.7196000   -44.2960700   -20.6716900   -16.3023700   -6.9183370    -93.0682800   
14675000000   -9.5428450    6.7773930     -11.4645000   -48.6552500   -20.4209800   -20.6152000   -7.1121440    -96.6046800   
14700000000   -10.0624100   8.0233810     -11.2311600   -52.8816300   -20.1843200   -25.0015400   -7.3023950    -100.1675000  
14725000000   -10.5810200   9.8382760     -11.0109300   -57.2702300   -19.9571800   -29.4291200   -7.5022880    -103.6881000  
14750000000   -11.0881400   12.1787500    -10.8125200   -61.6040100   -19.7466100   -33.8723000   -7.7097170    -107.2442000  
14775000000   -11.5327500   15.1069200    -10.6202400   -66.0694500   -19.5408900   -38.3554100   -7.9032950    -110.7091000  
14800000000   -11.9011800   18.7614300    -10.4582500   -70.4544500   -19.3574000   -42.8666400   -8.1196780    -114.0861000  
14825000000   -12.1916200   23.0846200    -10.3144100   -74.8249500   -19.1879100   -47.4058500   -8.3556880    -117.3290000  
14850000000   -12.3549000   27.8916600    -10.1815200   -79.2299700   -19.0261700   -51.9777100   -8.5815410    -120.4891000  
14875000000   -12.3862400   32.6167000    -10.0567600   -83.5654000   -18.8923500   -56.5901000   -8.7996030    -123.4304000  
14900000000   -12.2438700   37.1170200    -9.9696420    -87.9383100   -18.7798600   -61.1779600   -8.9964340    -125.9043000  
14925000000   -11.9436100   41.4418600    -9.8888880    -92.1554900   -18.6827300   -65.7630800   -9.1738240    -127.9416000  
14950000000   -11.5551300   45.3851900    -9.8238300    -96.3811000   -18.6149300   -70.3116500   -9.3195930    -129.8022000  
14975000000   -11.1070400   48.7871700    -9.7749180    -100.5169000  -18.5573300   -74.7569600   -9.3651830    -131.7153000  
15000000000   -10.6299200   51.3876100    -9.7306480    -104.5954000  -18.5212700   -79.1495400   -9.2988010    -133.6133000  
15025000000   -10.1085200   53.1388500    -9.6812820    -108.6138000  -18.4997700   -83.4278700   -9.1668560    -135.5647000  
15050000000   -9.5392520    54.2969600    -9.6408940    -112.6311000  -18.4792500   -87.6165300   -9.0128730    -137.8726000  
15075000000   -8.9845870    55.0566400    -9.6167010    -116.6425000  -18.4658200   -91.7480100   -8.8352920    -140.8309000  
15100000000   -8.4398040    55.4660800    -9.5916420    -120.6521000  -18.4586300   -95.8156700   -8.6204170    -144.1621000  
15125000000   -7.9329350    55.4453600    -9.5714770    -124.6863000  -18.4536900   -99.8512000   -8.3956790    -147.4913000  
15150000000   -7.4445540    54.9452100    -9.5655830    -128.5852000  -18.4531900   -103.8359000  -8.2092030    -150.7707000  
15175000000   -6.9863430    54.2325900    -9.5706650    -132.5807000  -18.4656800   -107.7640000  -8.0733880    -154.2773000  
15200000000   -6.5442710    53.3288100    -9.5953690    -136.5331000  -18.4767600   -111.6798000  -7.9418230    -158.1153000  
15225000000   -6.1511510    52.2416200    -9.6336200    -140.4357000  -18.5070100   -115.5475000  -7.7929700    -161.9644000  
15250000000   -5.7839960    50.9569100    -9.6742510    -144.2061000  -18.5392800   -119.3426000  -7.6561110    -165.6174000  
15275000000   -5.4339500    49.3816700    -9.7262470    -147.9243000  -18.5829400   -123.1151000  -7.5537350    -169.1933000  
15300000000   -5.1120920    47.7975100    -9.8000650    -151.6190000  -18.6324700   -126.8197000  -7.4651590    -172.9122000  
15325000000   -4.8041420    46.2155900    -9.8742070    -155.2555000  -18.6927200   -130.4588000  -7.3715310    -176.7601000  
15350000000   -4.5316160    44.5672700    -9.9535100    -158.7717000  -18.7586500   -134.0060000  -7.2677150    179.5398000   
15375000000   -4.2891600    42.8094500    -10.0404500   -162.2581000  -18.8262100   -137.4806000  -7.1661240    176.0303000   
15400000000   -4.0647320    40.9882500    -10.1390500   -165.5491000  -18.9046300   -140.8325000  -7.0979910    172.5783000   
15425000000   -3.8485940    39.0615800    -10.2398400   -168.8150000  -18.9918900   -144.1265000  -7.0518180    169.0730000   
15450000000   -3.6500370    37.2571000    -10.3376200   -171.9544000  -19.0756600   -147.3055000  -6.9960300    165.5397000   
15475000000   -3.4768780    35.4811200    -10.4509300   -175.0198000  -19.1654300   -150.3837000  -6.9377080    162.0617000   
15500000000   -3.3194620    33.7263700    -10.5498400   -177.8979000  -19.2463700   -153.3369000  -6.8903580    158.7645000   
15525000000   -3.1802040    31.8612900    -10.6316100   179.2361000   -19.3224300   -156.2439000  -6.8502000    155.6535000   
15550000000   -3.0440010    29.9890600    -10.7172300   176.4417000   -19.3988400   -159.0308000  -6.8447570    152.5989000   
15575000000   -2.9209350    28.1574300    -10.7997000   173.7743000   -19.4715900   -161.7507000  -6.8645760    149.5384000   
15600000000   -2.8062440    26.4086400    -10.8572600   171.2305000   -19.5232600   -164.3075000  -6.8713820    146.4749000   
15625000000   -2.6997270    24.5956600    -10.9115400   168.6365000   -19.5656900   -166.8907000  -6.8581290    143.6803000   
15650000000   -2.5995190    22.7814500    -10.9370800   166.0728000   -19.5943000   -169.4281000  -6.8627190    141.2557000   
15675000000   -2.5098940    21.0101100    -10.9510900   163.5372000   -19.6105900   -171.8938000  -6.9036020    139.0864000   
15700000000   -2.4277360    19.2779300    -10.9397000   160.9183000   -19.6066000   -174.4280000  -6.9560180    136.9148000   
15725000000   -2.3505010    17.5340000    -10.9353800   158.2150000   -19.5920100   -176.9749000  -6.9857630    134.8252000   
15750000000   -2.2896080    15.7290400    -10.9176600   155.3818000   -19.5728100   -179.7084000  -6.9797720    133.0252000   
15775000000   -2.2222320    14.0180500    -10.9018500   152.3720000   -19.5523000   177.5360000   -6.9613760    131.6020000   
15800000000   -2.1658540    12.3346100    -10.8955400   149.2422000   -19.5298900   174.6253000   -6.9492340    130.3930000   
15825000000   -2.1226860    10.6039200    -10.9180600   145.9571000   -19.5312600   171.5368000   -6.9113760    129.2088000   
15850000000   -2.0767580    8.8656400     -10.9719200   142.4392000   -19.5673600   168.3700000   -6.8047310    128.1990000   
15875000000   -2.0381620    7.1420260     -11.0982300   138.9734000   -19.6595600   165.2104000   -6.6185680    127.4416000   
15900000000   -2.0013380    5.5746850     -11.3403200   135.7449000   -19.8401800   162.3565000   -6.3690710    126.6553000   
15925000000   -1.9607640    4.0925140     -11.6256500   133.5586000   -20.0585100   160.3364000   -6.0488470    125.1981000   
15950000000   -1.9111330    2.6642750     -11.8317600   132.4402000   -20.1926900   159.3243000   -5.6878730    122.6329000   
15975000000   -1.8516350    1.0517600     -11.8610100   131.6652000   -20.1611300   158.4720000   -5.4025630    119.3828000   
16000000000   -1.7874450    -0.6191728    -11.7550600   130.4346000   -20.0162500   157.1054000   -5.2202970    116.2599000   
16025000000   -1.7382050    -2.2772320    -11.5998700   128.4453000   -19.8424200   155.0744000   -5.1076930    113.4345000   
16050000000   -1.6855750    -3.9179290    -11.4576400   125.9554000   -19.6797500   152.6178000   -5.0238030    110.8061000   
16075000000   -1.6497170    -5.6082320    -11.3540300   123.1984000   -19.5581900   149.9150000   -4.9407480    108.3108000   
16100000000   -1.6272340    -7.4002820    -11.2988700   120.2038000   -19.4683600   147.0726000   -4.8474360    106.0613000   
16125000000   -1.6036960    -9.1706670    -11.2532300   117.3068000   -19.4031800   144.2993000   -4.7674850    104.0356000   
16150000000   -1.5760610    -10.9248400   -11.2286400   114.4196000   -19.3448600   141.5211000   -4.7019670    101.9634000   
16175000000   -1.5444210    -12.5915800   -11.2142200   111.5605000   -19.2941800   138.7513000   -4.6427900    99.7233900    
16200000000   -1.5276290    -14.2806000   -11.2156400   108.5867000   -19.2629800   135.9390000   -4.5642790    97.4423100    
16225000000   -1.5233860    -15.9734300   -11.2167000   105.8288000   -19.2306300   133.2134000   -4.4641830    95.3325800    
16250000000   -1.5122870    -17.7190300   -11.2243600   103.0147000   -19.2110200   130.5387000   -4.3861130    93.3874600    
16275000000   -1.4956350    -19.4623500   -11.2291000   100.3150000   -19.1789100   127.9055000   -4.3171980    91.4623000    
16300000000   -1.4847620    -21.2399500   -11.2468200   97.4759500    -19.1604400   125.1996000   -4.2565660    89.3696800    
16325000000   -1.4831180    -23.0006500   -11.2743700   94.7796100    -19.1477500   122.5194000   -4.1834300    87.2251100    
16350000000   -1.4864090    -24.8106000   -11.2889200   92.0436000    -19.1351100   119.9032000   -4.0996950    85.2144600    
16375000000   -1.4780490    -26.6358100   -11.3002500   89.3273600    -19.1200700   117.2942000   -4.0342510    83.3154900    
16400000000   -1.4755880    -28.3349700   -11.3231000   86.7298600    -19.1015700   114.7614000   -3.9746670    81.3978100    
16425000000   -1.4820550    -30.1031800   -11.3586600   84.0304600    -19.0989300   112.1615000   -3.9305010    79.3365800    
16450000000   -1.4989630    -31.8896500   -11.3750300   81.4276600    -19.0891500   109.6107000   -3.8646290    77.3016200    
16475000000   -1.5163870    -33.7761300   -11.3883500   78.8557100    -19.0695200   107.0926000   -3.7874980    75.4362500    
16500000000   -1.5288020    -35.7134600   -11.4033900   76.2266000    -19.0665800   104.5857000   -3.7396650    73.6179900    
16525000000   -1.5350660    -37.5700000   -11.4274300   73.6544000    -19.0628700   102.0902000   -3.7110730    71.7141600    
16550000000   -1.5588940    -39.3064300   -11.4479100   71.1302700    -19.0555000   99.7061900    -3.6636200    69.7653000    
16575000000   -1.5885850    -41.1435100   -11.4701400   68.5480000    -19.0430000   97.2563800    -3.6111360    67.8656700    
16600000000   -1.6298120    -43.1408400   -11.4825800   66.0548700    -19.0350400   94.8645700    -3.5768340    66.0917300    
16625000000   -1.6600150    -45.2530500   -11.4837300   63.5522800    -19.0140700   92.4907200    -3.5443400    64.3099000    
16650000000   -1.6829530    -47.1491800   -11.5177400   60.9914800    -19.0051800   90.1545500    -3.5221130    62.3250400    
16675000000   -1.7213270    -48.9991900   -11.5377300   58.6391900    -18.9984800   87.8572500    -3.4841020    60.3611900    
16700000000   -1.7738470    -50.8505100   -11.5340300   56.2272300    -18.9725100   85.6525100    -3.4302030    58.5909700    
16725000000   -1.8303230    -52.9427300   -11.5428500   53.7989300    -18.9349900   83.3295000    -3.3896530    56.8872600    
16750000000   -1.8736750    -54.9976100   -11.5390100   51.4491000    -18.9069700   81.0895200    -3.3856250    55.1178400    
16775000000   -1.9238790    -56.9570400   -11.5423800   49.0747500    -18.8711700   78.9012800    -3.3603700    53.2761900    
16800000000   -1.9759760    -58.7997100   -11.5310800   46.8231800    -18.8191400   76.7058800    -3.3171680    51.5325300    
16825000000   -2.0481610    -60.7464300   -11.4925900   44.5445300    -18.7582600   74.4928100    -3.2948180    49.9192200    
16850000000   -2.1071560    -62.8320600   -11.4510200   42.1048400    -18.6812400   72.1355900    -3.2968850    48.2443900    
16875000000   -2.1560740    -64.9117100   -11.3870700   39.7641000    -18.5975000   69.7768400    -3.2947590    46.4345200    
16900000000   -2.2084730    -66.9931900   -11.3386100   37.2448500    -18.5326100   67.3487800    -3.2744180    44.6133200    
16925000000   -2.2545160    -69.0131100   -11.2827900   34.6549300    -18.4589800   64.8767300    -3.2498880    43.0080100    
16950000000   -2.3128360    -71.1813400   -11.2074300   32.0042000    -18.3816400   62.3005100    -3.2424470    41.5309600    
16975000000   -2.3715750    -73.4993800   -11.1528200   29.1721500    -18.3199300   59.6676500    -3.2692440    39.8843300    
17000000000   -2.4382700    -75.9097700   -11.1132800   26.1977500    -18.2796100   57.0620600    -3.2880810    38.1040400    
17025000000   -2.5084230    -78.4812500   -11.0935500   23.3394100    -18.2417400   54.5286300    -3.2763670    36.5027500    
17050000000   -2.6000450    -81.0377900   -11.0899700   20.5491700    -18.2110600   52.1105900    -3.2743640    35.1408000    
17075000000   -2.6979060    -83.6394900   -11.1027900   17.8021300    -18.1649700   49.7396900    -3.3015140    33.8868400    
17100000000   -2.8124730    -86.2295400   -11.0909300   15.1699500    -18.1039100   47.4729700    -3.3348930    32.5587100    
17125000000   -2.9551840    -88.9355600   -11.0969900   12.5907200    -18.0334400   45.1067600    -3.3443510    31.1599800    
17150000000   -3.1051270    -91.6521600   -11.0723500   9.9918840     -17.9365500   42.7741800    -3.3282550    29.9097000    
17175000000   -3.2706740    -94.5732700   -11.0350600   7.5152210     -17.8399400   40.2885300    -3.3104100    28.7921500    
17200000000   -3.4340170    -97.4612400   -10.9961300   4.9075260     -17.7314000   37.6738900    -3.3046290    27.6227000    
17225000000   -3.6279900    -100.3561000  -10.9479100   2.2197980     -17.6335000   35.0662000    -3.2938040    26.3250600    
17250000000   -3.8256710    -103.3046000  -10.8849100   -0.4718988    -17.5274900   32.3164600    -3.2657090    24.9966300    
17275000000   -4.0431430    -106.3829000  -10.8248400   -3.2646000    -17.4286500   29.5053400    -3.2310110    23.6750400    
17300000000   -4.2643420    -109.5730000  -10.7751500   -6.0954050    -17.3423900   26.6190600    -3.2054760    22.3991900    
17325000000   -4.4905040    -112.7244000  -10.7211900   -8.9883260    -17.2579300   23.7149900    -3.1743900    21.1019500    
17350000000   -4.7651680    -115.8723000  -10.6646100   -11.9540100   -17.1758300   20.7234900    -3.1411700    19.7696800    
17375000000   -5.0642350    -119.1989000  -10.6191900   -14.8845200   -17.0980900   17.7771900    -3.1052510    18.4936100    
17400000000   -5.3697590    -122.7628000  -10.5639100   -17.9518500   -17.0229000   14.7482100    -3.0748030    17.1839800    
17425000000   -5.6898440    -126.4483000  -10.5403300   -21.0763500   -16.9726800   11.6374100    -3.0532300    15.8268900    
17450000000   -6.0488460    -129.8951000  -10.5144600   -24.0561200   -16.9238800   8.5958900     -3.0265050    14.4987600    
17475000000   -6.4568350    -133.7229000  -10.4794000   -27.2043000   -16.8680500   5.5183940     -2.9880340    13.2601800    
17500000000   -6.8759530    -137.8055000  -10.4397600   -30.3750900   -16.8117300   2.3608430     -2.9579740    12.0001200    
17525000000   -7.2990410    -142.0885000  -10.4281900   -33.5445600   -16.7755000   -0.8645995    -2.9446540    10.6155600    
17550000000   -7.7376830    -146.2090000  -10.4192300   -36.7500900   -16.7411400   -4.0418960    -2.9135810    9.1716370     
17575000000   -8.2607800    -150.3772000  -10.4083500   -39.8777300   -16.7224500   -7.2280410    -2.8777950    7.7796570     
17600000000   -8.8601630    -155.0500000  -10.4014300   -43.0768200   -16.6976600   -10.4075600   -2.8266690    6.5285440     
17625000000   -9.4724550    -160.2909000  -10.4037100   -46.2659200   -16.6869800   -13.6978100   -2.7900630    5.2389970     
17650000000   -10.0588100   -165.8403000  -10.4089000   -49.6363800   -16.6865300   -16.9711200   -2.7648710    3.8993340     
17675000000   -10.6642300   -171.1013000  -10.4235200   -52.8583900   -16.6941300   -20.2709700   -2.7336320    2.5102210     
17700000000   -11.4362800   -176.7157000  -10.4438000   -55.9452400   -16.7087100   -23.4862700   -2.6990220    1.2215230     
17725000000   -12.3156000   176.4826000   -10.4620100   -59.2188100   -16.7292700   -26.7232900   -2.6619840    0.0298615     
17750000000   -13.1234700   168.2911000   -10.4934200   -62.5191700   -16.7646700   -30.0701100   -2.6400540    -1.2828470    
17775000000   -13.8379700   159.6487000   -10.5367100   -65.8197900   -16.8185400   -33.4249500   -2.6296080    -2.6673000    
17800000000   -14.5640100   151.0789000   -10.5734000   -68.9235300   -16.8703500   -36.6067900   -2.6047640    -4.0146960    
17825000000   -15.3834500   141.2164000   -10.6267600   -72.1292800   -16.9298000   -39.7963800   -2.5694720    -5.3866190    
17850000000   -16.1134700   129.1852000   -10.6849100   -75.3045300   -17.0047800   -42.9989700   -2.5434330    -6.6943310    
17875000000   -16.5180000   116.5222000   -10.7341600   -78.3217800   -17.0929800   -46.2124800   -2.5250930    -7.9978490    
17900000000   -16.7087000   103.6959000   -10.7881300   -81.3995400   -17.1813000   -49.2894000   -2.5156740    -9.3262120    
17925000000   -16.7789800   91.0137700    -10.8294800   -84.4166300   -17.2740300   -52.2922900   -2.5007290    -10.7445300   
17950000000   -16.5622300   77.9130600    -10.8895400   -87.4793000   -17.3706700   -55.2525600   -2.4688000    -12.1919400   
17975000000   -16.0308800   65.9157600    -10.9427900   -90.4083700   -17.4730100   -58.1621500   -2.4306000    -13.5217400   
18000000000   -15.3647100   56.1353500    -10.9860200   -93.4354400   -17.5772900   -61.0255700   -2.4105450    -14.7954500   
18025000000   -14.8065800   47.8518900    -11.0152300   -96.2985300   -17.6744900   -63.7783700   -2.3968520    -16.0479900   
18050000000   -14.2585100   39.7814400    -11.0476300   -99.3479200   -17.7629900   -66.5338100   -2.3775910    -17.4801200   
18075000000   -13.6414000   32.2515100    -11.0610100   -102.3125000  -17.8576800   -69.3230600   -2.3472280    -18.9183000   
18100000000   -12.9826800   25.9459500    -11.0893100   -105.2665000  -17.9457800   -71.9974600   -2.3074110    -20.1297800   
18125000000   -12.4488700   20.8183700    -11.0981000   -108.3891000  -18.0296500   -74.7137000   -2.2935690    -21.2481400   
18150000000   -11.9911900   15.8080100    -11.0949600   -111.5561000  -18.1008000   -77.4134600   -2.2841990    -22.5114000   
18175000000   -11.5727700   11.0133300    -11.1006400   -114.9015000  -18.1654400   -80.2706600   -2.2564750    -23.9487900   
18200000000   -11.1257200   6.3899920     -11.1156300   -118.2523000  -18.2497800   -83.1093900   -2.2058420    -25.2680100   
18225000000   -10.6970900   2.6247020     -11.1393100   -121.7040000  -18.3382800   -86.0291600   -2.1500060    -26.4809800   
18250000000   -10.3500100   -0.6447242    -11.1748200   -125.2463000  -18.4461200   -88.9556700   -2.1147630    -27.6926300   
18275000000   -10.0692500   -3.7403580    -11.2145900   -128.7046000  -18.5595100   -91.7824900   -2.0837350    -29.0514900   
18300000000   -9.7760910    -6.8705330    -11.2786700   -132.3729000  -18.6736400   -94.5673400   -2.0284160    -30.5029300   
18325000000   -9.4306080    -9.8514560    -11.3434000   -135.9129000  -18.8054100   -97.2738300   -1.9776120    -31.8784600   
18350000000   -9.0692310    -12.3666600   -11.4253600   -139.4467000  -18.9268400   -99.8516900   -1.9429080    -33.1225400   
18375000000   -8.7450900    -14.7674900   -11.5238600   -143.1409000  -19.0317500   -102.4884000  -1.9162220    -34.5856900   
18400000000   -8.4536220    -17.2186700   -11.6332600   -146.7719000  -19.1443200   -105.2151000  -1.8926550    -36.2805900   
18425000000   -8.1621700    -20.0664200   -11.7496300   -150.2313000  -19.2532300   -107.8481000  -1.8421360    -37.8588500   
18450000000   -7.8664770    -23.0459100   -11.9053500   -153.6991000  -19.3723700   -110.5935000  -1.8036090    -39.2839200   
18475000000   -7.5689180    -25.8761200   -12.0494600   -157.1416000  -19.5016400   -113.2079000  -1.7959940    -40.5183100   
18500000000   -7.3129730    -28.4987600   -12.1807500   -160.3742000  -19.6238600   -115.8096000  -1.7931740    -41.9213700   
18525000000   -7.1057640    -31.2294000   -12.3190700   -163.7283000  -19.7460700   -118.5324000  -1.7816370    -43.6132400   
18550000000   -6.8991270    -34.0624900   -12.4713200   -167.0549000  -19.8885200   -121.2016000  -1.7659230    -45.1987500   
18575000000   -6.6975940    -36.8216100   -12.6124700   -170.1008000  -20.0299100   -123.7295000  -1.7491790    -46.5151000   
18600000000   -6.5154380    -39.4609500   -12.7771200   -173.3544000  -20.1755700   -126.3406000  -1.7547320    -47.8783800   
18625000000   -6.3817930    -41.8946200   -12.9201900   -176.3845000  -20.3212000   -128.8550000  -1.7628780    -49.3682900   
18650000000   -6.2734360    -44.3964300   -13.0429800   -179.5813000  -20.4550000   -131.4426000  -1.7479370    -51.0237400   
18675000000   -6.1784970    -47.1327700   -13.1997900   177.3164000   -20.6132600   -134.0301000  -1.7353350    -52.5770500   
18700000000   -6.0813400    -49.8575400   -13.3376900   174.2986000   -20.7722800   -136.4990000  -1.7194260    -53.9022900   
18725000000   -5.9873420    -52.4971200   -13.4708800   171.1633000   -20.9314500   -138.9692000  -1.7128980    -55.2466000   
18750000000   -5.9156900    -55.0220500   -13.5960700   168.1021000   -21.1002200   -141.4607000  -1.7065870    -56.6894800   
18775000000   -5.8593990    -57.4745400   -13.7243800   165.0112000   -21.2642100   -143.9319000  -1.6897710    -58.2268500   
18800000000   -5.8226250    -59.9968700   -13.8673700   161.8923000   -21.4496100   -146.3479000  -1.6779620    -59.6263400   
18825000000   -5.7816920    -62.5233200   -14.0055900   158.7387000   -21.6378500   -148.7309000  -1.6719550    -60.9638300   
18850000000   -5.7675700    -64.9690700   -14.1228500   155.5488000   -21.8245800   -151.1293000  -1.6609430    -62.4188000   
18875000000   -5.7638230    -67.3231200   -14.2624200   152.2930000   -22.0293300   -153.4744000  -1.6498980    -63.9664900   
18900000000   -5.7855390    -69.7784700   -14.4055700   149.2083000   -22.2395800   -155.7162000  -1.6338570    -65.3802400   
18925000000   -5.8158780    -72.3608300   -14.5296200   145.7492000   -22.4578000   -157.9583000  -1.6078280    -66.7006500   
18950000000   -5.8498500    -74.8777500   -14.6972000   142.3177000   -22.7024700   -160.1542000  -1.6095280    -68.0754200   
18975000000   -5.8645430    -77.1963100   -14.8410300   139.0204000   -22.9515000   -162.2171000  -1.6165680    -69.5414000   
19000000000   -5.9341270    -79.3130000   -14.9944800   135.6176000   -23.2229100   -164.1743000  -1.6107960    -71.1330600   
19025000000   -6.0388630    -81.3364600   -15.1675300   132.0847000   -23.5113000   -165.8999000  -1.5997570    -72.5534500   
19050000000   -6.1869730    -83.7114200   -15.3493700   128.7600000   -23.8002700   -167.4379000  -1.5853300    -73.6877700   
19075000000   -6.3463030    -86.4235900   -15.5290800   125.0482000   -24.1015300   -168.9514000  -1.5980270    -74.9487700   
19100000000   -6.4890260    -88.8848600   -15.7452600   121.4127000   -24.4345400   -170.1344000  -1.6479440    -76.4510200   
19125000000   -6.6257680    -91.0941700   -15.9697700   117.7230000   -24.7700800   -170.9393000  -1.6742050    -78.1808100   
19150000000   -6.8107540    -92.9976800   -16.2275700   114.0255000   -25.1203900   -171.4128000  -1.6834380    -79.9698000   
19175000000   -7.0577880    -94.7271500   -16.5369200   110.3370000   -25.4622100   -171.1791000  -1.6918440    -81.3550300   
19200000000   -7.3455720    -96.4096800   -16.8540800   106.7876000   -25.7498100   -170.4696000  -1.7007620    -82.7505200   
19225000000   -7.6633920    -97.9766700   -17.2183300   103.0295000   -25.9977400   -169.2850000  -1.7473440    -84.3555100   
19250000000   -8.0408370    -99.2282000   -17.6017300   99.2856300    -26.1543400   -167.4844000  -1.7770730    -86.0577800   
19275000000   -8.4757260    -100.3416000  -18.0583200   95.7632800    -26.2010800   -165.2687000  -1.7801430    -87.6902200   
19300000000   -8.9613460    -101.4754000  -18.6137800   92.3100600    -26.1147500   -162.8071000  -1.7897490    -88.9546700   
19325000000   -9.4214840    -102.1651000  -19.1665300   89.2983600    -25.8524700   -160.3253000  -1.8190500    -90.0113900   
19350000000   -9.8492580    -102.1932000  -19.8020900   86.5121200    -25.4448500   -158.3025000  -1.8818960    -91.2838400   
19375000000   -10.2528600   -100.9156000  -20.5362000   84.1765600    -24.9159200   -156.9508000  -1.9519190    -92.8568200   
19400000000   -10.6623800   -98.5173600   -21.3309900   83.1014400    -24.2880900   -156.3208000  -1.9882310    -94.5124600   
19425000000   -11.0220300   -95.2951700   -22.2050200   82.5843400    -23.6210100   -156.5480000  -2.0095880    -96.0101000   
19450000000   -11.2707500   -91.5806400   -23.0819300   83.8428400    -22.9189100   -157.5303000  -2.0413930    -97.1436200   
19475000000   -11.3218600   -87.7334800   -23.9320200   87.1537900    -22.2158900   -159.3202000  -2.0873050    -98.2326500   
19500000000   -11.1786500   -83.9902400   -24.5848800   91.7107700    -21.5386000   -161.8387000  -2.1497590    -99.5320000   
19525000000   -10.8368600   -80.8038300   -24.8646000   98.5457100    -20.8942400   -164.9905000  -2.1926890    -100.9042000  
19550000000   -10.3506300   -78.4611100   -24.7246800   104.9551000   -20.2952100   -168.6400000  -2.2024420    -102.1844000  
19575000000   -9.8043170    -76.9957700   -24.1355700   110.8013000   -19.7607900   -172.6351000  -2.2247460    -103.1900000  
19600000000   -9.2370480    -76.5470200   -23.3014400   114.2385000   -19.2684800   -176.8057000  -2.2622450    -103.9733000  
19625000000   -8.7137790    -77.0287200   -22.3583900   116.1481000   -18.8133400   178.6662000   -2.2933190    -105.0105000  
19650000000   -8.2250970    -78.1475100   -21.4682000   115.5957000   -18.4226200   173.9323000   -2.3256390    -106.2933000  
19675000000   -7.7925060    -79.7791800   -20.6131800   114.0473000   -18.0762200   169.1879000   -2.3280030    -107.4089000  
19700000000   -7.4513240    -81.9600300   -19.8577900   111.4813000   -17.7642000   164.3150000   -2.3231850    -108.3969000  
19725000000   -7.1853890    -84.4656200   -19.1886700   108.4674000   -17.4909700   159.5550000   -2.3428990    -109.2387000  
19750000000   -6.9962500    -87.3341100   -18.5673700   104.8521000   -17.2215800   154.7444000   -2.3539830    -110.2642000  
19775000000   -6.8666310    -90.3427000   -18.0700200   100.6637000   -16.9767600   149.7524000   -2.3597120    -111.5234000  
19800000000   -6.8223750    -93.2388800   -17.6143100   96.5534700    -16.7421700   144.8635000   -2.3514410    -112.6795000  
19825000000   -6.9079470    -95.9976000   -17.2187300   92.1659200    -16.4975300   139.8387000   -2.3443670    -113.7946000  
19850000000   -7.1305700    -98.8266400   -16.9096500   87.8214300    -16.2656600   134.5205000   -2.3551600    -114.9996000  
19875000000   -7.5030580    -101.1792000  -16.6312900   83.3663700    -16.0374700   129.0214000   -2.3528200    -116.3041000  
19900000000   -8.0069770    -102.4137000  -16.3786900   79.0798500    -15.8212800   122.9557000   -2.3253140    -117.6883000  
19925000000   -8.6012520    -101.3094000  -16.1430100   74.8088400    -15.6810300   116.3980000   -2.3100970    -118.8871000  
19950000000   -9.0712330    -97.3985600   -15.9530800   70.6385100    -15.6512900   109.6015000   -2.2955920    -119.9638000  
19975000000   -9.0633250    -92.0576200   -15.7209100   66.0593700    -15.7750900   102.6751000   -2.2942860    -121.3164000  
20000000000   -8.5572420    -88.2981400   -15.5179700   61.5451700    -16.0449400   96.3470500    -2.2982390    -122.7183000  
