!Mini-Circuits Laboratory
!S-Parameters
!Model: ZX60-33LNR-S+
!Run / Lot / Date Code: E181103 / N/A / N/A
!Fixture: N/A, Pressing Arm: N/A
!Network Analyzer: PNA-X N5242A - 423 4 ports;  Serial number: 74302
!Date: 11/9/2018 at 2:35:48 PM
!S/N: Unit# 5
!Volage and Current limited to 5V and 150mA
# Hz  S  dB  R  50
!Frequency    S11 dB        S11 Deg       S21 dB        S21 Deg       S12 dB        S12 Deg       S22 dB        S22 Deg       
10000000      -7.2197220    -8.6909570    24.7969400    -167.9496000  -39.5688600   79.1904400    -17.0455900   40.4626600    
15000000      -7.3900090    -10.5439700   24.8684600    -173.6247000  -36.8771100   64.4347200    -19.7097700   -6.8357210    
20000000      -7.6715050    -11.7541300   24.8708700    -177.4852000  -35.3525800   53.5073500    -21.0893000   -41.5255000   
25000000      -7.8656090    -12.9622200   24.8514300    179.9701000   -34.4355100   45.6808900    -21.3347000   -69.1508800   
30000000      -7.9346020    -14.0510500   24.8243500    178.2328000   -33.8375600   39.9179500    -21.0482000   -87.8403000   
35000000      -7.9806890    -15.1158400   24.8020100    176.6869000   -33.4415900   35.3057000    -20.8380300   -101.5672000  
40000000      -8.0262100    -16.3539400   24.7878000    175.2486000   -33.1540900   31.5362300    -20.6462700   -112.5760000  
45000000      -8.0285600    -17.6692700   24.7762100    173.9314000   -32.9429800   28.5474600    -20.4962600   -121.1215000  
50000000      -7.9818960    -18.4553900   24.7744900    172.6250000   -32.8288300   25.9276100    -20.5491600   -128.4888000  
55000000      -8.0174900    -20.4281700   24.7620000    171.5321000   -32.6505600   23.9370300    -20.2721800   -133.7724000  
60000000      -8.0022050    -21.9666000   24.7529300    170.3885000   -32.5488400   22.1453000    -20.2008900   -138.6278000  
65000000      -7.9975120    -23.5082300   24.7438800    169.2664000   -32.4655700   20.6301600    -20.1349100   -142.9260000  
70000000      -7.9849440    -25.0509500   24.7321000    168.1576000   -32.3967300   19.2927500    -20.0878200   -146.7422000  
75000000      -7.9819290    -26.6872200   24.7208100    167.0589000   -32.3397500   18.1163300    -20.0273300   -150.1349000  
80000000      -7.9641120    -28.1865600   24.7088500    166.0107000   -32.2859100   17.0898700    -20.0054500   -153.1094000  
85000000      -7.9454570    -29.7988300   24.6974400    164.9481000   -32.2400600   16.1871700    -19.9946800   -155.7693000  
90000000      -7.9304040    -31.3679300   24.6845400    163.9062000   -32.1957400   15.3868000    -19.9765600   -158.1356000  
95000000      -7.9164880    -32.9686000   24.6718000    162.8727000   -32.1606800   14.6310300    -19.9713400   -160.4278000  
100000000     -7.8972960    -34.5779900   24.6593500    161.8391000   -32.1269500   13.9827200    -19.9607100   -162.4397000  
105000000     -7.8878420    -36.1528700   24.6419300    160.8181000   -32.0946100   13.3688900    -19.9682500   -164.4484000  
110000000     -7.8722500    -37.7373800   24.6291900    159.8209000   -32.0606600   12.8260400    -19.9677900   -166.0262000  
115000000     -7.8577340    -39.3342900   24.6103400    158.8141000   -32.0329900   12.3114900    -19.9693200   -167.9031000  
120000000     -7.8503170    -40.9505700   24.5909200    157.8147000   -32.0043000   11.8413500    -19.9756300   -169.4932000  
125000000     -7.8210520    -42.4262900   24.5753600    156.8558000   -31.9787700   11.3810300    -19.9923500   -171.0609000  
130000000     -7.8105940    -43.9742200   24.5554800    155.8525000   -31.9536900   11.0129600    -19.9999700   -172.5355000  
135000000     -7.7969060    -45.5321100   24.5349400    154.8792000   -31.9259700   10.6343300    -20.0217200   -173.8996000  
140000000     -7.7764520    -47.1056000   24.5172400    153.9188000   -31.9013100   10.3032100    -20.0252800   -175.0940000  
145000000     -7.7643500    -48.6638900   24.4985200    152.9547000   -31.8767300   9.9392560     -20.0445400   -176.4748000  
150000000     -7.7415380    -50.1756700   24.4753000    151.9892000   -31.8487900   9.6580950     -20.0635900   -177.6873000  
155000000     -7.7248760    -51.7036700   24.4554300    151.0423000   -31.8227900   9.3625260     -20.0825200   -178.8726000  
160000000     -7.7135160    -53.2330700   24.4330400    150.0713000   -31.8018500   9.0879540     -20.0908900   179.9430000   
165000000     -7.6943040    -54.7437900   24.4101000    149.1352000   -31.7733800   8.8089860     -20.1168600   178.8065000   
170000000     -7.6751470    -56.2000500   24.3865200    148.1900000   -31.7491200   8.5699820     -20.1458500   177.6647000   
175000000     -7.6569140    -57.6543700   24.3641800    147.2557000   -31.7259000   8.3345430     -20.1790000   176.6719000   
180000000     -7.6365140    -59.1268700   24.3396600    146.3291000   -31.6984700   8.1016270     -20.2023500   175.6728000   
185000000     -7.6171230    -60.5918700   24.3160800    145.3846000   -31.6714400   7.8876930     -20.2258300   174.7164000   
190000000     -7.6086850    -62.0216100   24.2888400    144.4609000   -31.6452300   7.6659750     -20.2568400   173.7295000   
195000000     -7.5840190    -63.4386900   24.2638400    143.5396000   -31.6230800   7.4619710     -20.2912100   172.7921000   
200000000     -7.5750960    -64.8999900   24.2359400    142.6217000   -31.5949900   7.2629690     -20.3043100   171.8937000   
205000000     -7.5497140    -66.2694500   24.2104300    141.7208000   -31.5701700   7.0735170     -20.3503500   171.0416000   
210000000     -7.5347940    -67.6890300   24.1823500    140.8020000   -31.5425500   6.8768550     -20.3822900   170.1910000   
215000000     -7.5104110    -69.0818900   24.1572300    139.8988000   -31.5155300   6.6927110     -20.4205800   169.4234000   
220000000     -7.4942880    -70.4270400   24.1294300    139.0074000   -31.4924600   6.4994490     -20.4612400   168.5748000   
225000000     -7.4751590    -71.8029700   24.1019200    138.0937000   -31.4628000   6.3458300     -20.4857900   167.7858000   
230000000     -7.4582790    -73.1240100   24.0738800    137.2142000   -31.4354500   6.1610430     -20.5348600   166.9579000   
235000000     -7.4382290    -74.5384100   24.0448800    136.3115000   -31.4058600   5.9839270     -20.5608500   166.2326000   
240000000     -7.4220320    -75.8427800   24.0157700    135.4291000   -31.3782900   5.8104720     -20.5942800   165.4380000   
245000000     -7.4026810    -77.1938900   23.9866400    134.5348000   -31.3504700   5.6357140     -20.6256400   164.6407000   
250000000     -7.3809780    -78.5636400   23.9565300    133.6487000   -31.3185600   5.4719080     -20.6653900   163.9161000   
255000000     -7.3655210    -79.8192400   23.9272200    132.7761000   -31.2928800   5.2923470     -20.7213900   163.0970000   
260000000     -7.3457460    -81.1265400   23.8969900    131.8970000   -31.2647900   5.1463970     -20.7610700   162.3616000   
265000000     -7.3272230    -82.4024100   23.8689000    131.0234000   -31.2342700   4.9848690     -20.8026700   161.6767000   
270000000     -7.3112110    -83.6706200   23.8370500    130.1579000   -31.2067200   4.8190680     -20.8477000   160.8907000   
275000000     -7.2968410    -84.9723400   23.8053900    129.2952000   -31.1752500   4.6399070     -20.8876100   160.2128000   
280000000     -7.2751140    -86.2127400   23.7732900    128.4361000   -31.1443100   4.4879550     -20.9380300   159.5239000   
285000000     -7.2580510    -87.4805700   23.7406300    127.5808000   -31.1161500   4.3232710     -20.9858500   158.8122000   
290000000     -7.2386290    -88.7063800   23.7098800    126.7266000   -31.0863200   4.1534040     -21.0218700   158.1914000   
295000000     -7.2184620    -89.9380700   23.6781200    125.8744000   -31.0545300   3.9844990     -21.0717300   157.5171000   
300000000     -7.2007970    -91.1325400   23.6471500    125.0300000   -31.0251400   3.8151410     -21.1251800   156.9860000   
305000000     -7.1845880    -92.3299300   23.6139500    124.1857000   -30.9922500   3.6664030     -21.1754000   156.2656000   
310000000     -7.1640000    -93.5193300   23.5823700    123.3522000   -30.9612600   3.4988650     -21.2289900   155.7342000   
315000000     -7.1483730    -94.6872600   23.5488900    122.5212000   -30.9308600   3.3344970     -21.2774000   155.0785000   
320000000     -7.1330810    -95.8489500   23.5164300    121.6954000   -30.9002800   3.1662730     -21.3300600   154.4895000   
325000000     -7.1127560    -97.0261300   23.4831100    120.8572000   -30.8684000   2.9907330     -21.3735600   153.9019000   
330000000     -7.0942940    -98.1964300   23.4492300    120.0170000   -30.8372800   2.8387160     -21.4259100   153.2827000   
335000000     -7.0769660    -99.3299700   23.4161100    119.2006000   -30.8040600   2.6658600     -21.4802100   152.7410000   
340000000     -7.0590050    -100.4537000  23.3822500    118.3773000   -30.7743600   2.4913620     -21.5427200   152.1376000   
345000000     -7.0407250    -101.5769000  23.3490000    117.5566000   -30.7409500   2.3252200     -21.6087100   151.6058000   
350000000     -7.0284890    -102.7080000  23.3149700    116.7228000   -30.7080000   2.1468830     -21.6375400   151.0221000   
355000000     -7.0113530    -103.8233000  23.2793400    115.9231000   -30.6772100   1.9707510     -21.7116200   150.4309000   
360000000     -6.9970010    -104.9278000  23.2453500    115.1182000   -30.6450200   1.8019540     -21.7706100   149.9120000   
365000000     -6.9861790    -106.0179000  23.2101000    114.3132000   -30.6137800   1.6159180     -21.8188500   149.2891000   
370000000     -6.9692010    -107.1401000  23.1748100    113.4988000   -30.5811100   1.4376240     -21.8686800   148.7070000   
375000000     -6.9561700    -108.1902000  23.1403900    112.7001000   -30.5496000   1.2594410     -21.9244600   148.1144000   
380000000     -6.9366020    -109.2452000  23.1065400    111.8996000   -30.5161300   1.0781360     -21.9815700   147.5943000   
385000000     -6.9275710    -110.3118000  23.0706200    111.1040000   -30.4842500   0.8884484     -22.0367500   146.9576000   
390000000     -6.9081790    -111.3308000  23.0368600    110.3040000   -30.4522800   0.7163277     -22.0912900   146.4221000   
395000000     -6.8968720    -112.3573000  23.0005100    109.5169000   -30.4200700   0.5309927     -22.1461200   145.8005000   
400000000     -6.8830220    -113.4292000  22.9647800    108.7155000   -30.3857200   0.3508910     -22.2051600   145.3455000   
405000000     -6.8708550    -114.4266000  22.9289200    107.9392000   -30.3548500   0.1677673     -22.2681500   144.7455000   
410000000     -6.8568190    -115.5033000  22.8919800    107.1512000   -30.3201600   -0.0364890    -22.3092900   144.2603000   
415000000     -6.8442940    -116.4991000  22.8556400    106.3781000   -30.2884700   -0.2141003    -22.3811300   143.7128000   
420000000     -6.8337830    -117.4764000  22.8196700    105.5966000   -30.2535700   -0.4096078    -22.4425700   143.1827000   
425000000     -6.8213150    -118.4601000  22.7856800    104.8306000   -30.2222700   -0.6047465    -22.5086900   142.7399000   
430000000     -6.8123410    -119.4255000  22.7503800    104.0563000   -30.1895600   -0.7996464    -22.5892100   142.3145000   
435000000     -6.7994300    -120.4075000  22.7139100    103.2822000   -30.1576500   -0.9957180    -22.6473800   141.8528000   
440000000     -6.7899300    -121.3587000  22.6767400    102.5243000   -30.1243100   -1.2027030    -22.7191400   141.4115000   
445000000     -6.7794260    -122.3249000  22.6397400    101.7575000   -30.0917500   -1.4026890    -22.7827500   140.9919000   
450000000     -6.7728940    -123.2995000  22.6019900    100.9984000   -30.0595900   -1.5847420    -22.8536000   140.5518000   
455000000     -6.7587570    -124.2408000  22.5653000    100.2388000   -30.0266400   -1.7963410    -22.9220000   140.1466000   
460000000     -6.7527660    -125.1485000  22.5282600    99.4877900    -29.9955300   -2.0015230    -22.9934700   139.6833000   
465000000     -6.7435790    -126.1068000  22.4911200    98.7298700    -29.9610900   -2.2060380    -23.0699300   139.2953000   
470000000     -6.7368850    -127.0114000  22.4549500    97.9835800    -29.9286900   -2.4210590    -23.1435100   138.9020000   
475000000     -6.7274160    -127.9323000  22.4184500    97.2305500    -29.8947700   -2.6256480    -23.2247400   138.5405000   
480000000     -6.7172720    -128.8409000  22.3814100    96.4871200    -29.8621300   -2.8297270    -23.3047300   138.0856000   
485000000     -6.7073040    -129.7575000  22.3441100    95.7441500    -29.8295700   -3.0470300    -23.3831200   137.7253000   
490000000     -6.7026220    -130.6630000  22.3059400    95.0098600    -29.7993300   -3.2608420    -23.4503900   137.2373000   
495000000     -6.6889840    -131.5566000  22.2692400    94.2690700    -29.7644400   -3.4646760    -23.5343800   136.9145000   
500000000     -6.6847260    -132.4354000  22.2323600    93.5383400    -29.7322900   -3.6912340    -23.6161600   136.5272000   
525000000     -6.6355200    -136.7332000  22.0461300    89.9051100    -29.5688300   -4.7830290    -24.0164900   134.7194000   
550000000     -6.6072070    -140.8932000  21.8628800    86.3269200    -29.4086400   -5.9192110    -24.4056900   132.8755000   
575000000     -6.5701940    -145.0035000  21.6754300    82.8303200    -29.2415300   -7.0797280    -24.8818500   131.5201000   
600000000     -6.5447570    -148.7420000  21.4966600    79.3637000    -29.0792800   -8.2632030    -25.3239200   129.9899000   
625000000     -6.5076640    -152.5446000  21.3149300    75.9252200    -28.9148700   -9.4774210    -25.8065700   128.6360000   
650000000     -6.4902840    -156.2633000  21.1318000    72.5518000    -28.7526300   -10.7570400   -26.2794100   127.5890000   
675000000     -6.4660960    -159.9364000  20.9538900    69.1833000    -28.5894600   -12.0786300   -26.8018600   126.8389000   
700000000     -6.4372620    -163.6161000  20.7666200    65.8397600    -28.4305100   -13.4903400   -27.3481100   125.7543000   
725000000     -6.4811480    -167.3540000  20.5607600    62.5907900    -28.3024700   -14.9592100   -28.1648200   123.6985000   
750000000     -6.5989160    -169.9537000  20.3920300    59.8223500    -28.1621000   -15.9205600   -29.4054500   126.8218000   
775000000     -6.5323560    -172.8206000  20.2564300    56.5632500    -27.9720800   -17.3109600   -29.8030200   129.0112000   
800000000     -6.5010450    -176.0375000  20.0905700    53.3336700    -27.8075200   -18.8205800   -30.4011700   130.4345000   
825000000     -6.4922640    -179.0561000  19.9265000    50.1840900    -27.6482200   -20.3190900   -31.0527700   132.3241000   
850000000     -6.5050890    177.9427000   19.7611800    47.0821200    -27.4942000   -21.8166500   -31.7362200   135.0736000   
875000000     -6.5028370    174.9530000   19.5935200    44.0290600    -27.3434800   -23.3620900   -32.3702600   138.7262000   
900000000     -6.5276370    172.0745000   19.4330400    40.9932200    -27.1937000   -24.9143100   -33.1038800   144.5805000   
925000000     -6.5362430    169.3422000   19.2741400    37.9694400    -27.0492800   -26.4711200   -33.6598900   151.0232000   
950000000     -6.5597380    166.4983000   19.1145100    34.9906700    -26.9076400   -28.0565200   -34.0678400   159.0282000   
975000000     -6.5721880    163.7886000   18.9561100    32.0163600    -26.7622800   -29.6581900   -34.0492800   166.9144000   
1000000000    -6.5906960    161.0776000   18.7995700    29.0764000    -26.6243000   -31.3036300   -33.8967000   174.7514000   
1025000000    -6.6258640    158.4491000   18.6449100    26.1348000    -26.4916500   -32.9562800   -33.5602400   -177.5543000  
1050000000    -6.6451830    155.8454000   18.4884100    23.2144900    -26.3539300   -34.6174400   -32.9607400   -170.5607000  
1075000000    -6.6524600    153.2281000   18.3311200    20.3128900    -26.2263400   -36.3235600   -32.1470500   -164.0269000  
1100000000    -6.6786880    150.6380000   18.1744100    17.4058200    -26.1065500   -38.0373400   -31.0928700   -158.5644000  
1125000000    -6.6835630    147.9380000   18.0079400    14.5533600    -25.9935200   -39.7366300   -29.8513600   -153.8517000  
1150000000    -6.6918870    145.0766000   17.8255500    11.7852900    -25.9042600   -41.3948200   -28.3043700   -151.1134000  
1175000000    -6.7498200    141.9795000   17.6314900    9.3580880     -25.8222500   -42.6832400   -26.5517100   -153.2700000  
1200000000    -6.9391180    139.0939000   17.5113600    7.2861220     -25.6629100   -43.7123000   -25.4949500   -161.8664000  
1225000000    -7.1011680    137.2395000   17.4682800    4.7506830     -25.4396500   -45.2746600   -25.5814700   -168.3725000  
1250000000    -7.1706340    135.3248000   17.3911900    1.8494390     -25.2553700   -47.2041900   -25.7892600   -169.5282000  
1275000000    -7.2174940    133.3364000   17.2865200    -1.0817400    -25.1055800   -49.1880400   -25.7283000   -169.2607000  
1300000000    -7.2568000    131.2009000   17.1702600    -3.9633740    -24.9659700   -51.0979700   -25.4841100   -168.6277000  
1325000000    -7.3082720    129.0240000   17.0491300    -6.7801760    -24.8373000   -53.0333300   -25.1163500   -168.1571000  
1350000000    -7.3570500    126.8761000   16.9276200    -9.5716080    -24.7107000   -54.9530100   -24.6465700   -167.9725000  
1375000000    -7.4163270    124.6592000   16.8024400    -12.3510700   -24.5887200   -56.8341500   -24.2259700   -168.5330000  
1400000000    -7.4611760    122.4650000   16.6797800    -15.1115400   -24.4706400   -58.6932400   -23.8269400   -169.1567000  
1425000000    -7.5093540    120.4099000   16.5560300    -17.8164700   -24.3484400   -60.5660400   -23.3944400   -169.9885000  
1450000000    -7.5799530    118.2853000   16.4361200    -20.5075200   -24.2335800   -62.4449400   -22.9892000   -170.9092000  
1475000000    -7.6446660    116.0940000   16.3156900    -23.1983800   -24.1148900   -64.3539500   -22.6176400   -171.9494000  
1500000000    -7.7071380    113.9863000   16.1983500    -25.8774400   -24.0001900   -66.2551100   -22.2504800   -173.2428000  
1525000000    -7.7714310    111.7498000   16.0852300    -28.5365400   -23.8846200   -68.1936100   -21.9012500   -174.5566000  
1550000000    -7.8358170    109.7163000   15.9699300    -31.1988600   -23.7711600   -70.0810500   -21.5943100   -175.8882000  
1575000000    -7.9051440    107.6463000   15.8591700    -33.8403100   -23.6577600   -72.0126300   -21.2548300   -177.3199000  
1600000000    -7.9770650    105.5154000   15.7550200    -36.4892700   -23.5455200   -73.9571800   -20.9043000   -178.8673000  
1625000000    -8.0562710    103.3277000   15.6432800    -39.1164800   -23.4355600   -75.9032500   -20.6143800   179.6097000   
1650000000    -8.1132550    101.2966000   15.5380200    -41.7301600   -23.3304700   -77.8446100   -20.3315600   178.0177000   
1675000000    -8.1950100    99.1311300    15.4310000    -44.3526500   -23.2197100   -79.8361000   -20.0606600   176.2397000   
1700000000    -8.2829860    97.1016000    15.3273300    -47.0005600   -23.1194500   -81.8099300   -19.7947600   174.4999000   
1725000000    -8.3707380    94.9887100    15.2220500    -49.5916200   -23.0146900   -83.7727000   -19.5323500   172.9380000   
1750000000    -8.4514450    92.8633600    15.1207100    -52.1814900   -22.9106800   -85.7570600   -19.2797200   171.2686000   
1775000000    -8.5336100    90.7501900    15.0191500    -54.7797500   -22.8104500   -87.7650800   -19.0347900   169.7577000   
1800000000    -8.6354930    88.6667300    14.9169100    -57.3626800   -22.7146100   -89.7211600   -18.7594600   167.6537000   
1825000000    -8.7269780    86.6284300    14.8213000    -59.9275600   -22.6102500   -91.6874700   -18.5361000   165.7612000   
1850000000    -8.8336420    84.5579400    14.7250200    -62.5010300   -22.5085300   -93.6978400   -18.3071300   163.8838000   
1875000000    -8.9166870    82.5816700    14.6322800    -65.0685600   -22.4100300   -95.6855600   -18.0997800   161.7702000   
1900000000    -9.0123420    80.4639800    14.5386400    -67.6708600   -22.3054100   -97.7282000   -17.9494800   159.6217000   
1925000000    -9.0917520    78.4926200    14.4493500    -70.2388400   -22.2057600   -99.7664400   -17.7357100   157.7339000   
1950000000    -9.1859690    76.3113200    14.3549100    -72.7976100   -22.1133800   -101.8285000  -17.5488600   155.6172000   
1975000000    -9.3041320    74.2624000    14.2623900    -75.3887000   -22.0167700   -103.8617000  -17.3955400   153.6830000   
2000000000    -9.4066590    72.0537400    14.1735800    -77.9674800   -21.9242100   -105.9562000  -17.2020800   151.6313000   
2025000000    -9.5136370    70.0311300    14.0826000    -80.5216900   -21.8347200   -107.9959000  -17.0655100   149.5130000   
2050000000    -9.6138820    67.8136600    13.9956500    -83.0888900   -21.7363100   -110.0890000  -16.8995700   147.4733000   
2075000000    -9.7145900    65.8604900    13.9033200    -85.6444500   -21.6514200   -112.1632000  -16.7584900   145.3159000   
2100000000    -9.8143380    63.6379900    13.8166000    -88.1949400   -21.5578800   -114.2282000  -16.6320300   143.4392000   
2125000000    -9.9296680    61.4740900    13.7311500    -90.7487500   -21.4670100   -116.3772000  -16.4523900   141.4391000   
2150000000    -10.0388100   59.3998500    13.6390200    -93.3244600   -21.3842200   -118.4755000  -16.3181300   139.1544000   
2175000000    -10.1589700   57.2056400    13.5522200    -95.8673700   -21.2998800   -120.5720000  -16.2026500   137.1096000   
2200000000    -10.2702600   54.9280600    13.4679700    -98.4231100   -21.2200500   -122.7604000  -16.0307500   134.9477000   
2225000000    -10.3708000   52.7873000    13.3785500    -100.9668000  -21.1488900   -124.8904000  -15.8959100   132.4432000   
2250000000    -10.4771300   50.5076300    13.2844800    -103.4740000  -21.0755800   -126.9722000  -15.7837400   130.1223000   
2275000000    -10.5751500   48.1477900    13.1914600    -105.9789000  -21.0017500   -129.0795000  -15.6621600   127.6863000   
2300000000    -10.6623800   45.6482000    13.0987400    -108.4332000  -20.9383900   -131.1598000  -15.5743100   124.8689000   
2325000000    -10.7485900   43.0462400    13.0096800    -110.7796000  -20.8704300   -133.1545000  -15.5336000   122.2230000   
2350000000    -10.8827300   40.2917200    12.9337400    -113.1284000  -20.7946800   -135.1287000  -15.5294400   119.6330000   
2375000000    -11.0598500   37.5594700    12.8724200    -115.4927000  -20.7118300   -137.1241000  -15.5685700   117.0605000   
2400000000    -11.2478000   34.7135700    12.8182300    -117.9456000  -20.6159000   -139.1408000  -15.5990300   114.8673000   
2425000000    -11.4459300   32.1441000    12.7662200    -120.4530000  -20.5223000   -141.2301000  -15.6225600   112.9193000   
2450000000    -11.6248700   29.4663500    12.7105200    -123.0001000  -20.4361700   -143.3788000  -15.6271500   110.9669000   
2475000000    -11.7834700   26.8926600    12.6464100    -125.5456000  -20.3471100   -145.5084000  -15.6151900   108.9410000   
2500000000    -11.9441400   24.4791200    12.5812400    -128.0935000  -20.2612700   -147.6463000  -15.6191300   107.0311000   
2525000000    -12.1257800   21.7636500    12.5159900    -130.6417000  -20.1809000   -149.8447000  -15.6327700   104.8924000   
2550000000    -12.3057500   18.9960300    12.4510000    -133.2001000  -20.1041000   -152.0121000  -15.6505000   102.7103000   
2575000000    -12.4705100   16.0160300    12.3856300    -135.7123000  -20.0224100   -154.1754000  -15.6550900   100.6311000   
2600000000    -12.6290000   13.1249200    12.3217800    -138.2186000  -19.9424500   -156.3100000  -15.6731400   98.7623400    
2625000000    -12.8032700   10.0582300    12.2589500    -140.7231000  -19.8591500   -158.4580000  -15.7233800   96.9760700    
2650000000    -12.9896800   7.0222450     12.2044300    -143.2429000  -19.7770000   -160.6693000  -15.7358500   95.1627000    
2675000000    -13.1971600   3.7523480     12.1474500    -145.8021000  -19.7021700   -162.8694000  -15.7267400   93.1271700    
2700000000    -13.3652200   0.3995765     12.0899400    -148.3085000  -19.6237400   -165.0381000  -15.7737100   91.2038600    
2725000000    -13.5713000   -3.0836690    12.0397800    -150.9126000  -19.5369700   -167.2494000  -15.7597600   89.6052600    
2750000000    -13.7513100   -6.4831940    11.9853000    -153.4733000  -19.4577900   -169.5135000  -15.7633400   87.6502200    
2775000000    -13.9566700   -9.8375760    11.9282700    -156.0688000  -19.3736200   -171.7912000  -15.7594400   85.9285000    
2800000000    -14.1824500   -13.6790600   11.8737500    -158.7178000  -19.2950900   -174.1031000  -15.7134600   83.8977300    
2825000000    -14.3668600   -17.2113900   11.8104600    -161.3180000  -19.2283800   -176.4204000  -15.7127100   81.4467400    
2850000000    -14.5456000   -20.9327400   11.7443400    -163.8788000  -19.1622800   -178.7052000  -15.7402400   79.2429400    
2875000000    -14.7420800   -24.9072300   11.6876500    -166.5107000  -19.0925400   178.9739000   -15.7282100   77.1314500    
2900000000    -14.9054300   -28.8617800   11.6242800    -169.1460000  -19.0280500   176.6566000   -15.7506200   74.6214000    
2925000000    -15.0568100   -33.0301400   11.5590100    -171.7428000  -18.9681800   174.3413000   -15.7935000   72.0800600    
2950000000    -15.2040100   -37.1449900   11.4913400    -174.3141000  -18.9131800   172.0560000   -15.8604800   69.5966800    
2975000000    -15.3006000   -41.7566100   11.4297300    -176.8640000  -18.8506100   169.7569000   -15.9601700   67.0195200    
3000000000    -15.4489000   -46.2009800   11.3659300    -179.4664000  -18.7867200   167.4631000   -16.0516500   64.7437900    
3025000000    -15.5443000   -51.0603800   11.3111300    177.9662000   -18.7282500   165.1622000   -16.1371500   62.3514500    
3050000000    -15.6461600   -55.6971100   11.2485400    175.3870000   -18.6711300   162.8536000   -16.2584600   59.6805800    
3075000000    -15.7110200   -60.4687800   11.1902400    172.7958000   -18.6143200   160.5356000   -16.3889600   57.3126800    
3100000000    -15.7263500   -65.4737500   11.1294700    170.2063000   -18.5622600   158.2066000   -16.5184500   54.7943900    
3125000000    -15.8046900   -70.4419500   11.0719300    167.5975000   -18.5065500   155.9063000   -16.6521100   52.1990800    
3150000000    -15.8225200   -75.3954100   11.0129500    164.9660000   -18.4505200   153.5765000   -16.7989500   49.7016600    
3175000000    -15.7401100   -80.5341300   10.9544000    162.3607000   -18.3949200   151.2425000   -16.9504900   47.0782600    
3200000000    -15.6581200   -85.7070200   10.8985400    159.7326000   -18.3410700   148.9098000   -17.1453300   44.4555800    
3225000000    -15.6081200   -90.4181600   10.8377700    157.1074000   -18.2898300   146.5732000   -17.3566600   42.0208600    
3250000000    -15.4919700   -95.4296600   10.7752900    154.4836000   -18.2334000   144.2034000   -17.5477800   39.4900700    
3275000000    -15.3750500   -100.8377000  10.7203500    151.8240000   -18.1851600   141.8128000   -17.7558600   36.6264800    
3300000000    -15.2250900   -105.3299000  10.6550700    149.1964000   -18.1328800   139.4641000   -18.0108800   33.8678100    
3325000000    -15.0881900   -110.2090000  10.5924300    146.5137000   -18.0853800   137.0714000   -18.2234100   31.1665300    
3350000000    -14.9123500   -114.8234000  10.5283200    143.8405000   -18.0419500   134.6662000   -18.4280800   28.3632700    
3375000000    -14.7303100   -119.3515000  10.4602800    141.1568000   -17.9985000   132.2270000   -18.6783600   25.2214900    
3400000000    -14.5721000   -123.9794000  10.3924200    138.4679000   -17.9569600   129.8071000   -18.9674200   21.9199500    
3425000000    -14.3519800   -128.0047000  10.3193100    135.8098000   -17.9231600   127.3919000   -19.2801200   18.4709500    
3450000000    -14.1536300   -132.1510000  10.2427700    133.1321000   -17.8886800   124.9961000   -19.6238700   14.9372600    
3475000000    -13.9650800   -136.0411000  10.1673700    130.4246000   -17.8576700   122.5583000   -20.0306500   11.2866700    
3500000000    -13.7469700   -139.9918000  10.0888400    127.7503000   -17.8322300   120.0789000   -20.4137300   7.2957160     
3525000000    -13.5260900   -143.4705000  10.0003100    125.0840000   -17.8139100   117.6911000   -20.8982100   2.7015310     
3550000000    -13.2354100   -146.6709000  9.9143450     122.4790000   -17.7967800   115.3027000   -21.4134400   -1.9711630    
3575000000    -12.9601100   -149.7073000  9.8295520     119.8792000   -17.7807500   112.9512000   -21.9848900   -6.9261190    
3600000000    -12.6693400   -152.9100000  9.7428400     117.2775000   -17.7576600   110.5766000   -22.6458000   -12.4707900   
3625000000    -12.3495800   -156.0371000  9.6614750     114.6884000   -17.7412000   108.2390000   -23.4411100   -19.0184700   
3650000000    -11.9821000   -159.6509000  9.5748240     112.0410000   -17.7238200   105.8217000   -24.4114500   -27.2419300   
3675000000    -11.7073600   -163.3703000  9.4635110     109.3224000   -17.7232300   103.3567000   -25.6858800   -38.8931600   
3700000000    -11.5033200   -167.3098000  9.2958750     106.7443000   -17.7785900   100.9092000   -27.9704900   -55.6272600   
3725000000    -11.4532000   -170.0515000  9.1107960     105.0950000   -17.8639800   99.3000500    -34.5780800   -73.4033800   
3750000000    -11.1735800   -171.4570000  9.1358570     103.7322000   -17.7684500   98.0657000    -39.4042900   -6.3888460    
3775000000    -10.7749200   -173.9193000  9.2024510     101.2741000   -17.6213200   95.9109200    -34.6854000   -6.1197610    
3800000000    -10.3895900   -176.9070000  9.2126710     98.4973000    -17.5254800   93.4286800    -34.2121400   -20.9638900   
3825000000    -10.1154600   179.8940000   9.1826980     95.6521400    -17.4545400   90.8643000    -34.8764800   -36.9159900   
3850000000    -9.7912820    176.8258000   9.1335300     92.8783600    -17.4072500   88.3083600    -35.8982800   -55.5107700   
3875000000    -9.5370400    173.8774000   9.0772040     90.1386100    -17.3629100   85.8105000    -36.6060000   -79.7803300   
3900000000    -9.3005340    170.9165000   9.0121420     87.3662100    -17.3298600   83.2919400    -36.0577600   -104.5473000  
3925000000    -9.0755160    167.9301000   8.9420110     84.6567900    -17.3030200   80.7644000    -34.5885000   -124.8111000  
3950000000    -8.8319240    165.1161000   8.8743310     81.9872100    -17.2772000   78.2757300    -32.8588100   -140.6494000  
3975000000    -8.6038360    162.3876000   8.7992990     79.3071500    -17.2597700   75.7811700    -31.0632300   -152.6411000  
4000000000    -8.3802310    159.6281000   8.7272850     76.6249800    -17.2398100   73.3385200    -29.5213300   -161.5485000  
4025000000    -8.1673570    156.9566000   8.6565480     74.0022700    -17.2226500   70.8562500    -28.1146900   -168.4484000  
4050000000    -7.9653560    154.3257000   8.5832970     71.3331600    -17.2076200   68.3863600    -26.9218800   -174.3840000  
4075000000    -7.7713140    151.6873000   8.5029140     68.7153500    -17.1941500   65.9652600    -25.7552700   179.8698000   
4100000000    -7.5739600    149.0622000   8.4270950     66.0640100    -17.1827600   63.5031900    -24.6765600   175.2977000   
4125000000    -7.3884480    146.5344000   8.3457930     63.4190600    -17.1736200   61.0355700    -23.7076400   171.4354000   
4150000000    -7.2036290    143.8885000   8.2692040     60.7941900    -17.1721500   58.5880900    -22.8541300   167.7987000   
4175000000    -7.0275280    141.3058000   8.1910610     58.1520300    -17.1608900   56.1729500    -22.0994700   163.9062000   
4200000000    -6.8570970    138.7534000   8.1048770     55.5239600    -17.1576600   53.7354000    -21.3475600   160.2444000   
4225000000    -6.6949010    136.2948000   8.0270730     52.8934600    -17.1554300   51.3081200    -20.6461600   156.8701000   
4250000000    -6.5397310    133.7551000   7.9490430     50.2476300    -17.1488200   48.8765900    -20.0188500   153.8671000   
4275000000    -6.3913660    131.3568000   7.8616640     47.6318400    -17.1446100   46.4072600    -19.4257400   150.7971000   
4300000000    -6.2478570    128.9348000   7.7787850     45.0108000    -17.1493000   44.0062100    -18.8552800   147.8466000   
4325000000    -6.1051930    126.5351000   7.6943760     42.3839400    -17.1417100   41.5957400    -18.3224900   144.8780000   
4350000000    -5.9770840    124.1401000   7.6052250     39.7762200    -17.1416300   39.1647600    -17.8123700   142.1115000   
4375000000    -5.8527520    121.7091000   7.5164190     37.1472500    -17.1456000   36.7201300    -17.3577300   139.4741000   
4400000000    -5.7300900    119.4008000   7.4275310     34.5474500    -17.1464000   34.3073500    -16.9140900   136.6498000   
4425000000    -5.6177400    116.9878000   7.3332510     31.8957700    -17.1557100   31.8234900    -16.4844300   133.9790000   
4450000000    -5.5093600    114.7309000   7.2312650     29.3401700    -17.1672800   29.4081100    -16.0410800   131.2144000   
4475000000    -5.4079220    112.4720000   7.1425700     26.7199100    -17.1760800   26.9690200    -15.6729200   128.6042000   
4500000000    -5.3156620    110.2427000   7.0374470     24.1210000    -17.1933000   24.5060300    -15.2926700   126.0352000   
4525000000    -5.2323480    108.0137000   6.9346060     21.5666400    -17.2138000   22.0819700    -14.9159700   123.3598000   
4550000000    -5.1456460    105.8934000   6.8274580     18.9960900    -17.2370800   19.6433500    -14.5612300   120.8081000   
4575000000    -5.0725460    103.7818000   6.7168310     16.4595800    -17.2647300   17.2468500    -14.2202400   118.3147000   
4600000000    -5.0198800    101.7469000   6.6081020     13.9660400    -17.2955900   14.8567300    -13.8951200   115.8537000   
4625000000    -4.9648230    99.7745500    6.4977590     11.4971700    -17.3301400   12.5089400    -13.5861800   113.2772000   
4650000000    -4.9025590    97.8527300    6.3785260     9.0526010     -17.3735900   10.1716400    -13.2797000   110.7248000   
4675000000    -4.8355650    96.1199800    6.2613130     6.7135150     -17.4220800   7.9404590     -12.9750100   108.1177000   
4700000000    -4.7662310    94.4034000    6.1570160     4.3979690     -17.4549400   5.7567920     -12.7002600   105.5499000   
4725000000    -4.6751150    92.8151800    6.0492770     2.1105200     -17.4885400   3.6365880     -12.4337700   102.9316000   
4750000000    -4.5660850    91.1796000    5.9546460     -0.1116013    -17.5140800   1.5537310     -12.1844500   100.3102000   
4775000000    -4.4441500    89.5734500    5.8676880     -2.3787870    -17.5263500   -0.5253539    -11.9586300   97.7429200    
4800000000    -4.3137550    87.7370800    5.7920210     -4.6428270    -17.5309400   -2.6306450    -11.7534400   95.1920900    
4825000000    -4.1791340    85.8792600    5.7195310     -6.9452040    -17.5319600   -4.7630970    -11.5559400   92.6317100    
4850000000    -4.0512200    83.9203900    5.6514630     -9.2615460    -17.5292600   -6.9452330    -11.3675700   90.1660800    
4875000000    -3.9314590    81.8389900    5.5809810     -11.6365800   -17.5249900   -9.1925120    -11.1787700   87.8817700    
4900000000    -3.8236040    79.7623700    5.5071370     -14.0480900   -17.5250100   -11.3927300   -11.0164900   85.6344500    
4925000000    -3.7197150    77.6851300    5.4345740     -16.4492100   -17.5225800   -13.6741300   -10.8746400   83.3003800    
4950000000    -3.6264770    75.5998400    5.3600600     -18.8503700   -17.5264100   -15.9534300   -10.7253400   80.8689000    
4975000000    -3.5381710    73.5045900    5.2798900     -21.2843700   -17.5316600   -18.2303900   -10.5650600   78.4806600    
5000000000    -3.4609830    71.3833000    5.2030880     -23.7181300   -17.5385200   -20.5200600   -10.4126900   76.2233000    
5025000000    -3.3915420    69.2840700    5.1242930     -26.1402500   -17.5477500   -22.8313400   -10.2697700   73.9888500    
5050000000    -3.3258330    67.1996400    5.0407750     -28.5520300   -17.5646000   -25.1177100   -10.1415800   71.6274600    
5075000000    -3.2597590    65.1560700    4.9602500     -30.9421500   -17.5750800   -27.3729800   -10.0007600   69.2259400    
5100000000    -3.2032300    63.0744900    4.8780630     -33.3894400   -17.5866100   -29.6820400   -9.8509060    66.9792600    
5125000000    -3.1528610    60.9615200    4.7926690     -35.7608300   -17.6071500   -31.9266800   -9.7079840    64.8789100    
5150000000    -3.1015430    58.8975200    4.7128760     -38.1526200   -17.6280000   -34.1942500   -9.5933720    62.8269800    
5175000000    -3.0545780    56.8323000    4.6253000     -40.5556900   -17.6448900   -36.4757900   -9.4968230    60.6666500    
5200000000    -3.0105310    54.8373800    4.5418770     -42.9164700   -17.6634400   -38.6912700   -9.3883280    58.3854800    
5225000000    -2.9732940    52.9003800    4.4591090     -45.2902500   -17.6814600   -40.9131400   -9.2790660    56.1192600    
5250000000    -2.9391430    50.8422500    4.3765000     -47.6887200   -17.6989300   -43.1748400   -9.1748360    53.9697300    
5275000000    -2.9051850    48.8093300    4.2880700     -50.0435400   -17.7240800   -45.4074800   -9.0798380    51.8629400    
5300000000    -2.8794390    46.8694500    4.2066310     -52.4018600   -17.7408400   -47.6289400   -8.9957520    49.6318100    
5325000000    -2.8498660    44.9614700    4.1257900     -54.7677900   -17.7616600   -49.8468300   -8.9139480    47.3852700    
5350000000    -2.8322390    42.9396900    4.0432220     -57.1403600   -17.7759400   -52.0758700   -8.8170080    45.2038500    
5375000000    -2.8147730    40.9182500    3.9609060     -59.5063400   -17.7987700   -54.3144500   -8.7351210    43.0772500    
5400000000    -2.7981490    38.8501200    3.8729390     -61.8670300   -17.8234700   -56.5391900   -8.6621200    40.9520000    
5425000000    -2.7782930    36.9195600    3.7855750     -64.2567100   -17.8499700   -58.7825100   -8.5901300    38.7388700    
5450000000    -2.7630550    35.0385700    3.7012240     -66.5814700   -17.8781500   -60.9612600   -8.5127570    36.4908400    
5475000000    -2.7644210    33.1504800    3.6118760     -68.9050100   -17.9037100   -63.1544600   -8.4304530    34.3766600    
5500000000    -2.7696400    31.1852300    3.5281570     -71.2333600   -17.9276300   -65.3363000   -8.3620080    32.3720400    
5525000000    -2.7749870    29.2581800    3.4413080     -73.5448700   -17.9579000   -67.5080300   -8.3061560    30.3447700    
5550000000    -2.7836120    27.3282100    3.3505230     -75.9137500   -17.9829500   -69.7330600   -8.2626810    28.2548700    
5575000000    -2.8002940    25.5367700    3.2640250     -78.2217200   -18.0150800   -71.8911800   -8.2104810    26.1251700    
5600000000    -2.8252980    23.6819700    3.1761620     -80.5436100   -18.0447300   -74.0389300   -8.1658360    24.0948000    
5625000000    -2.8660970    21.7826500    3.0957340     -82.8813200   -18.0728500   -76.2317000   -8.1347930    22.1648600    
5650000000    -2.9043120    19.8169800    3.0014860     -85.2787800   -18.1059000   -78.4503600   -8.1149740    20.0971800    
5675000000    -2.9429660    17.9377200    2.9007590     -87.6385600   -18.1512700   -80.6468800   -8.0916240    17.9005700    
5700000000    -2.9875560    16.2394100    2.7921090     -89.9507400   -18.2040800   -82.7821600   -8.0448880    15.6955800    
5725000000    -3.0388580    14.6688500    2.6748780     -92.2442700   -18.2618600   -84.8668100   -8.0007830    13.6647300    
5750000000    -3.1015400    13.2865100    2.5663310     -94.4102100   -18.3162700   -86.8780900   -7.9807900    11.8119500    
5775000000    -3.1635880    11.8967300    2.4533280     -96.6175700   -18.3684300   -88.8564400   -7.9864440    10.0036700    
5800000000    -3.2185260    10.6648400    2.3324120     -98.7869600   -18.4335800   -90.8198200   -7.9940390    8.1211020     
5825000000    -3.2546210    9.5685330     2.2041290     -100.8579000  -18.4962900   -92.6750400   -7.9917290    6.3027900     
5850000000    -3.2609300    8.5672510     2.0720840     -102.8089000  -18.5627300   -94.4315200   -7.9743580    4.7331540     
5875000000    -3.2419600    7.5200080     1.9391800     -104.6403000  -18.6278400   -96.0454100   -7.9316580    3.4286010     
5900000000    -3.1960940    6.3858360     1.8210260     -106.2266000  -18.6789900   -97.4530300   -7.8461180    2.0753620     
5925000000    -3.1105310    5.1252470     1.7351370     -107.6810000  -18.6959400   -98.6998600   -7.7192870    0.3344680     
5950000000    -3.0155520    3.6555670     1.6921100     -109.1029000  -18.6656400   -99.9779400   -7.5671520    -1.8495260    
5975000000    -2.9253340    2.1377660     1.6853920     -110.6402000  -18.6021600   -101.3649000  -7.4380000    -4.3195400    
6000000000    -2.8484590    0.5325583     1.7057740     -112.3216000  -18.5162300   -102.9598000  -7.3626790    -6.7638650    
6025000000    -2.7814950    -1.2528070    1.7299650     -114.2567000  -18.4259800   -104.7456000  -7.3336900    -9.0780900    
6050000000    -2.7304880    -3.1263590    1.7430500     -116.3169000  -18.3456900   -106.6676000  -7.3313670    -11.3804100   
6075000000    -2.6867000    -5.0906630    1.7567180     -118.4186000  -18.2729700   -108.6820000  -7.3409510    -13.6635500   
6100000000    -2.6379110    -7.1141980    1.7608200     -120.6697000  -18.2114200   -110.7820000  -7.3496720    -15.8544900   
6125000000    -2.6087120    -9.1256550    1.7601020     -122.8720000  -18.1530500   -112.8758000  -7.3606630    -17.9942200   
6150000000    -2.5805970    -11.1519600   1.7489060     -125.1368000  -18.1045400   -115.0070000  -7.3801610    -20.1092400   
6175000000    -2.5639210    -13.1710700   1.7392150     -127.4101000  -18.0534700   -117.1172000  -7.3976420    -22.2113000   
6200000000    -2.5524090    -15.1117600   1.7213170     -129.6706000  -18.0122500   -119.2599000  -7.4093690    -24.3593700   
6225000000    -2.5393390    -17.0627000   1.7131550     -131.9415000  -17.9654800   -121.3824000  -7.4209610    -26.4370400   
6250000000    -2.5462070    -19.0272600   1.7018650     -134.2515000  -17.9182100   -123.5359000  -7.4299780    -28.4763700   
6275000000    -2.5573070    -21.0886100   1.6806100     -136.5119000  -17.8804300   -125.6879000  -7.4390430    -30.4604200   
6300000000    -2.5649760    -23.1387000   1.6638240     -138.8137000  -17.8345500   -127.8133000  -7.4544430    -32.4113300   
6325000000    -2.5843660    -25.1771300   1.6514270     -141.1280000  -17.7900700   -130.0023000  -7.4749360    -34.3970500   
6350000000    -2.5954580    -27.2276900   1.6291150     -143.4687000  -17.7550300   -132.1967000  -7.4953340    -36.4520100   
6375000000    -2.6100180    -29.2372800   1.6109370     -145.7920000  -17.7120100   -134.3591000  -7.5128330    -38.5100700   
6400000000    -2.6352450    -31.2911300   1.5939300     -148.1456000  -17.6684600   -136.5652000  -7.5227210    -40.5123300   
6425000000    -2.6707470    -33.3136000   1.5681900     -150.4745000  -17.6332100   -138.7185000  -7.5430460    -42.4825400   
6450000000    -2.7000210    -35.2954500   1.5564380     -152.7790000  -17.5867300   -140.9034000  -7.5724260    -44.4706900   
6475000000    -2.7323570    -37.3521800   1.5433930     -155.1810000  -17.5417000   -143.1541000  -7.6023550    -46.5542900   
6500000000    -2.7714470    -39.3765300   1.5204230     -157.5278000  -17.4981900   -145.3644000  -7.6160790    -48.6128000   
6525000000    -2.8108360    -41.4673900   1.5065370     -159.9336000  -17.4529700   -147.5935000  -7.6239580    -50.5695500   
6550000000    -2.8631310    -43.5961700   1.4934090     -162.2986000  -17.4076400   -149.8398000  -7.6459300    -52.3898300   
6575000000    -2.9157250    -45.7643200   1.4684020     -164.7051000  -17.3699200   -152.0889000  -7.6822310    -54.2357800   
6600000000    -2.9690780    -47.8440100   1.4553250     -167.1065000  -17.3211200   -154.3758000  -7.7276540    -56.2220000   
6625000000    -3.0275790    -49.9499500   1.4373020     -169.5694000  -17.2790000   -156.6790000  -7.7599520    -58.2918400   
6650000000    -3.0998010    -52.0771500   1.4180150     -171.9722000  -17.2346400   -158.9706000  -7.7877970    -60.2643100   
6675000000    -3.1745220    -54.2471400   1.3990210     -174.4627000  -17.1930600   -161.3086000  -7.8220600    -62.2132300   
6700000000    -3.2533940    -56.4565700   1.3811040     -176.9144000  -17.1488200   -163.6806000  -7.8706000    -64.1911400   
6725000000    -3.3415100    -58.6492700   1.3540230     -179.4594000  -17.1144100   -166.0242000  -7.9086960    -66.2551300   
6750000000    -3.4310390    -60.8308600   1.3282400     178.0574000   -17.0802000   -168.4259000  -7.9357610    -68.3365900   
6775000000    -3.5366390    -63.0076100   1.2963140     175.5370000   -17.0446500   -170.7814000  -7.9660270    -70.2995500   
6800000000    -3.6567270    -65.2158300   1.2620750     173.0285000   -17.0156900   -173.1567000  -8.0004920    -72.2384200   
6825000000    -3.7762760    -67.3246200   1.2315640     170.5163000   -16.9885400   -175.5610000  -8.0436120    -74.1934400   
6850000000    -3.9167930    -69.4231200   1.1936240     167.9889000   -16.9628900   -177.9667000  -8.0836160    -76.2017900   
6875000000    -4.0640750    -71.4865600   1.1532970     165.5127000   -16.9371500   179.6241000   -8.1259290    -78.1898000   
6900000000    -4.2203920    -73.5198700   1.1085660     163.0004000   -16.9193200   177.2209000   -8.1707570    -80.2397800   
6925000000    -4.3910230    -75.4425400   1.0618880     160.5185000   -16.9045700   174.8302000   -8.2167340    -82.2987400   
6950000000    -4.5628150    -77.3370800   1.0062470     158.0272000   -16.8981700   172.4311000   -8.2505480    -84.3933000   
6975000000    -4.7440070    -79.0403700   0.9394807     155.6567000   -16.8949100   170.1360000   -8.2942130    -86.4278900   
7000000000    -4.9253530    -80.6339100   0.8869689     153.2926000   -16.8907900   167.8546000   -8.3469560    -88.4745600   
7025000000    -5.0949570    -82.1166700   0.8337902     150.9337000   -16.8840700   165.5722000   -8.4028060    -90.6402100   
7050000000    -5.2438760    -83.4934700   0.7758613     148.6907000   -16.8811300   163.4013000   -8.4483960    -92.8652400   
7075000000    -5.3630260    -84.7641600   0.7296314     146.5356000   -16.8680800   161.2866000   -8.4846730    -94.9891600   
7100000000    -5.4629600    -85.8999100   0.6905443     144.4690000   -16.8444700   159.2189000   -8.5444330    -96.9982100   
7125000000    -5.5361190    -87.0838600   0.6697216     142.3230000   -16.8133500   157.1868000   -8.6346540    -99.0351000   
7150000000    -5.5720010    -88.5000900   0.6670659     140.2697000   -16.7595100   155.1218000   -8.7288810    -101.2181000  
7175000000    -5.5840580    -90.0709300   0.6765351     138.0920000   -16.7009100   153.0177000   -8.8074290    -103.4783000  
7200000000    -5.5755230    -91.8070100   0.6940806     135.9463000   -16.6290800   150.9134000   -8.8826000    -105.6084000  
7225000000    -5.5663920    -93.7135100   0.7296286     133.7243000   -16.5435500   148.7376000   -8.9755310    -107.5845000  
7250000000    -5.5595300    -95.9529000   0.7723522     131.3382000   -16.4529200   146.4401000   -9.0753130    -109.5568000  
7275000000    -5.5664120    -98.3518200   0.8203277     128.9392000   -16.3619200   144.0902000   -9.1715970    -111.6073000  
7300000000    -5.5730980    -101.0680000  0.8606361     126.4123000   -16.2673300   141.6602000   -9.2493030    -113.5772000  
7325000000    -5.6079950    -103.8802000  0.9049318     123.8293000   -16.1770600   139.1365000   -9.3310200    -115.4240000  
7350000000    -5.6655280    -106.7530000  0.9504339     121.1707000   -16.0848300   136.5933000   -9.4283070    -117.2502000  
7375000000    -5.7298310    -109.8370000  0.9936875     118.4306000   -15.9949700   133.9339000   -9.5293960    -119.1715000  
7400000000    -5.8198630    -112.9078000  1.0337610     115.6253000   -15.9124500   131.2517000   -9.6142450    -121.1490000  
7425000000    -5.9346510    -116.2485000  1.0578400     112.8004000   -15.8332700   128.5152000   -9.6858880    -123.0612000  
7450000000    -6.0603430    -119.6027000  1.0902070     109.8855000   -15.7566400   125.7203000   -9.7577040    -124.9038000  
7475000000    -6.2046190    -123.1428000  1.1071950     106.9373000   -15.6875300   122.8889000   -9.8403950    -126.7440000  
7500000000    -6.3735990    -126.6491000  1.1248590     103.9540000   -15.6262200   120.0175000   -9.9111120    -128.7139000  
7525000000    -6.5495200    -130.3429000  1.1293750     100.9415000   -15.5640900   117.1197000   -9.9722670    -130.6464000  
7550000000    -6.7542850    -134.1491000  1.1318340     97.8857500    -15.5178900   114.1739000   -10.0225100   -132.5572000  
7575000000    -6.9869680    -137.9711000  1.1268500     94.8178700    -15.4703900   111.2248000   -10.0758700   -134.4922000  
7600000000    -7.2109620    -141.9774000  1.1187320     91.7126000    -15.4278800   108.2590000   -10.1274800   -136.4438000  
7625000000    -7.4671450    -146.0585000  1.0987650     88.5640900    -15.3967300   105.2561000   -10.1659700   -138.4360000  
7650000000    -7.7450390    -150.1782000  1.0764140     85.4480700    -15.3688900   102.2428000   -10.2001600   -140.3682000  
7675000000    -8.0595430    -154.5774000  1.0452960     82.3181700    -15.3456100   99.2073000    -10.2369600   -142.3218000  
7700000000    -8.3841590    -159.0940000  1.0101720     79.1219900    -15.3252800   96.1433600    -10.2742100   -144.3181000  
7725000000    -8.7043620    -163.9009000  0.9630508     75.9261500    -15.3195000   93.0672500    -10.3021800   -146.4362000  
7750000000    -9.0636220    -168.7324000  0.9159483     72.7658500    -15.3217700   90.0011000    -10.3269100   -148.5597000  
7775000000    -9.4298610    -173.7693000  0.8532927     69.5581800    -15.3222800   86.9060200    -10.3386600   -150.6753000  
7800000000    -9.8351140    -179.0850000  0.7903256     66.3899900    -15.3402400   83.8267100    -10.3591500   -152.8555000  
7825000000    -10.2530500   175.3423000   0.7145761     63.2080500    -15.3571200   80.7611000    -10.3806100   -155.0835000  
7850000000    -10.6717000   169.6344000   0.6288322     60.0315600    -15.3882400   77.6726200    -10.3971900   -157.3985000  
7875000000    -11.1210200   163.6343000   0.5345803     56.8629900    -15.4275100   74.6467000    -10.4109900   -159.8122000  
7900000000    -11.5764800   157.3510000   0.4371158     53.7376400    -15.4736800   71.6143600    -10.4193400   -162.2194000  
7925000000    -12.0302100   150.7675000   0.3326193     50.6178600    -15.5293000   68.6210500    -10.4294500   -164.6535000  
7950000000    -12.4997900   143.8515000   0.2196104     47.5941100    -15.5898200   65.6620600    -10.4468000   -167.2294000  
7975000000    -12.9357800   136.8578000   0.0965120     44.6079000    -15.6557000   62.8181200    -10.4714800   -169.8742000  
8000000000    -13.3449800   129.6952000   -0.0287629    41.6594600    -15.7252900   59.9751300    -10.4877700   -172.6236000  
8025000000    -13.7451500   122.5567000   -0.1543333    38.8442500    -15.7935600   57.2299000    -10.5057400   -175.3767000  
8050000000    -14.1061900   115.5345000   -0.2719699    36.0613000    -15.8631200   54.5596500    -10.5362300   -178.1361000  
8075000000    -14.4055400   108.4203000   -0.3917750    33.3430700    -15.9235400   51.9492100    -10.5770700   179.0853000   
8100000000    -14.6439600   101.3827000   -0.4924572    30.7104400    -15.9757300   49.3850500    -10.6194100   176.2260000   
8125000000    -14.7591600   94.9657500    -0.5856106    28.0815600    -16.0161200   46.8632000    -10.6594300   173.3884000   
8150000000    -14.7753000   88.6666300    -0.6689770    25.4639700    -16.0455000   44.3355400    -10.7015900   170.5876000   
8175000000    -14.7035900   82.9972100    -0.7348720    22.8404500    -16.0617100   41.8082700    -10.7486000   167.8334000   
8200000000    -14.5318100   77.3033300    -0.7869940    20.1448600    -16.0609500   39.2012400    -10.7965200   165.0569000   
8225000000    -14.2403000   72.0179100    -0.8307964    17.2995100    -16.0551800   36.5381800    -10.8389700   162.3017000   
8250000000    -13.8399400   67.0318800    -0.8772041    14.4322900    -16.0450600   33.7603600    -10.8658300   159.5051000   
8275000000    -13.3709600   62.3714600    -0.9197817    11.4169900    -16.0320500   30.8830900    -10.8832700   156.7048000   
8300000000    -12.9010200   57.7495300    -0.9643747    8.3325210     -16.0263400   27.8966300    -10.8861300   153.8980000   
8325000000    -12.3895900   53.0314600    -1.0203490    5.1188370     -16.0244000   24.8611800    -10.8758300   151.0857000   
8350000000    -11.8519200   48.2574800    -1.0838950    1.8816810     -16.0331500   21.6969000    -10.8582800   148.2668000   
8375000000    -11.3080400   43.5586700    -1.1621070    -1.4622260    -16.0521500   18.5124600    -10.8351700   145.3783000   
8400000000    -10.7796700   39.0740200    -1.2571800    -4.8352080    -16.0866500   15.2734400    -10.8056100   142.3441000   
8425000000    -10.2833500   34.5247300    -1.3633390    -8.2375190    -16.1313000   12.0358800    -10.7669200   139.2647000   
8450000000    -9.8087360    29.9647900    -1.4832510    -11.6500200   -16.1921100   8.7587330     -10.7186800   136.2081000   
8475000000    -9.3434120    25.4947100    -1.6185630    -15.0218400   -16.2619600   5.4823030     -10.6802700   133.0907000   
8500000000    -8.8969700    21.1878900    -1.7698460    -18.4033700   -16.3416000   2.2425830     -10.6562600   129.7882000   
8525000000    -8.4942980    17.0393900    -1.9241400    -21.7822100   -16.4355800   -1.0067810    -10.6157600   126.2889000   
8550000000    -8.1177520    12.9863700    -2.0962690    -25.1113200   -16.5390000   -4.2388160    -10.5584700   122.7400000   
8575000000    -7.7510060    8.9506160     -2.2798090    -28.3990600   -16.6480100   -7.4094950    -10.4937300   119.2920000   
8600000000    -7.4109490    5.0489810     -2.4667580    -31.6707700   -16.7650800   -10.5719900   -10.4373600   115.8351000   
8625000000    -7.0911320    1.2664920     -2.6633930    -34.8836600   -16.8961900   -13.7057000   -10.3935300   112.2393000   
8650000000    -6.8037730    -2.4423930    -2.8681100    -38.0542800   -17.0266200   -16.7994800   -10.3406600   108.5639000   
8675000000    -6.5306120    -6.1436570    -3.0816760    -41.2215900   -17.1691600   -19.8576100   -10.2775700   104.9017000   
8700000000    -6.2645110    -9.7029930    -3.3107550    -44.3162100   -17.3167200   -22.8947500   -10.2175100   101.2515000   
8725000000    -6.0181420    -13.1400300   -3.5389030    -47.3796700   -17.4718000   -25.8589300   -10.1675800   97.5410600    
8750000000    -5.7920670    -16.4824000   -3.7747930    -50.3380400   -17.6276500   -28.7888300   -10.1100900   93.7477700    
8775000000    -5.5873360    -19.7821300   -4.0138640    -53.2314500   -17.7898700   -31.6524300   -10.0467900   89.9468900    
8800000000    -5.3907930    -23.0174900   -4.2625840    -56.1468600   -17.9608100   -34.4995600   -9.9784200    86.1472200    
8825000000    -5.2072180    -26.2032700   -4.5156250    -58.9655200   -18.1293200   -37.3194100   -9.9106330    82.3467800    
8850000000    -5.0301240    -29.2463900   -4.7747460    -61.7125000   -18.3082800   -40.0111700   -9.8359320    78.5582500    
8875000000    -4.8790290    -32.2223700   -5.0303640    -64.3819800   -18.4793900   -42.7169500   -9.7585640    74.8083900    
8900000000    -4.7355410    -35.2185100   -5.2936550    -67.0190100   -18.6617500   -45.3645600   -9.6891310    71.0636100    
8925000000    -4.5979390    -38.1340400   -5.5672060    -69.5588700   -18.8448900   -47.9426300   -9.6186820    67.2998800    
8950000000    -4.4751890    -40.9710800   -5.8404670    -72.0940700   -19.0250000   -50.4665200   -9.5377710    63.4962000    
8975000000    -4.3567440    -43.7230900   -6.1142030    -74.4862700   -19.2178700   -52.9479800   -9.4538350    59.7871200    
9000000000    -4.2563060    -46.4828500   -6.3907730    -76.7841000   -19.4044200   -55.3392800   -9.3729080    56.1019600    
9025000000    -4.1508660    -49.2206400   -6.6608080    -79.0264100   -19.5858300   -57.7204600   -9.2982850    52.3938400    
9050000000    -4.0608570    -51.8315200   -6.9387730    -81.1579500   -19.7801900   -60.0076100   -9.2170890    48.6620500    
9075000000    -3.9785750    -54.3937200   -7.2068510    -83.1721200   -19.9629200   -62.1788400   -9.1218210    45.0204600    
9100000000    -3.9155000    -56.8552800   -7.4802910    -85.0768200   -20.1461500   -64.3025100   -9.0376070    41.4911700    
9125000000    -3.8564900    -59.3368500   -7.7502980    -86.9117000   -20.3270500   -66.3615600   -8.9677490    37.9433700    
9150000000    -3.8064640    -61.7892400   -8.0068060    -88.6257500   -20.4968200   -68.3464400   -8.8984550    34.2831500    
9175000000    -3.7618600    -64.1547800   -8.2458450    -90.2346300   -20.6679600   -70.2360000   -8.8122210    30.6005000    
9200000000    -3.7342430    -66.4962000   -8.4815130    -91.7637600   -20.8233100   -72.0245400   -8.7129290    27.0745100    
9225000000    -3.7133180    -68.8281600   -8.6933350    -93.1992000   -20.9713300   -73.7854100   -8.6262210    23.6623200    
9250000000    -3.6955970    -71.0739900   -8.8958810    -94.4769500   -21.1069800   -75.4348700   -8.5513190    20.2599700    
9275000000    -3.6838460    -73.2308800   -9.0623040    -95.8194800   -21.2206200   -77.0251100   -8.4705660    16.8237700    
9300000000    -3.6853720    -75.2471400   -9.2127760    -97.0702700   -21.3192800   -78.5916400   -8.3845360    13.4872100    
9325000000    -3.6894810    -77.1537700   -9.3152200    -98.2550500   -21.3832500   -80.0594800   -8.2993890    10.2675200    
9350000000    -3.7120370    -79.0505500   -9.3999870    -99.5595900   -21.4241100   -81.6329600   -8.2139210    7.0689430     
9375000000    -3.7219450    -80.8509600   -9.4531130    -100.9722000  -21.4456800   -83.2243700   -8.1317790    3.8789830     
9400000000    -3.7364180    -82.4327900   -9.4783750    -102.5281000  -21.4433300   -84.9519000   -8.0370030    0.7691471     
9425000000    -3.7436250    -83.9735800   -9.4815440    -104.2778000  -21.4164700   -86.8137400   -7.9368010    -2.2174030    
9450000000    -3.7546810    -85.4051200   -9.4870910    -106.2954000  -21.3721500   -88.7995800   -7.8403020    -5.1042950    
9475000000    -3.7531420    -86.8653500   -9.4841920    -108.5296000  -21.3281700   -90.9879000   -7.7435260    -7.9850940    
9500000000    -3.7239410    -88.1603300   -9.4783700    -110.9205000  -21.2767600   -93.3854100   -7.6395710    -10.8784100   
9525000000    -3.6869610    -89.4099600   -9.5139430    -113.5280000  -21.2368000   -95.9437800   -7.5213990    -13.7488000   
9550000000    -3.6348000    -90.6398000   -9.5414110    -116.3266000  -21.2028500   -98.6498700   -7.3931720    -16.5634800   
9575000000    -3.5713480    -91.8676900   -9.6119130    -119.1751000  -21.1887400   -101.4993000  -7.2645430    -19.3568500   
9600000000    -3.5050150    -93.1834600   -9.6945230    -122.1617000  -21.1938300   -104.3859000  -7.1327190    -22.0992400   
9625000000    -3.4170870    -94.5167300   -9.8141980    -125.1370000  -21.2077700   -107.3959000  -6.9988310    -24.8934500   
9650000000    -3.3291880    -95.9127700   -9.9453900    -128.2036000  -21.2475300   -110.3759000  -6.8695000    -27.6980300   
9675000000    -3.2421930    -97.3531300   -10.1154300   -131.1326000  -21.3038300   -113.4366000  -6.7334740    -30.5476900   
9700000000    -3.1587290    -98.8856400   -10.3014000   -134.0426000  -21.3753600   -116.4473000  -6.5932050    -33.4017700   
9725000000    -3.0704000    -100.4480000  -10.4954800   -136.9672000  -21.4594100   -119.4099000  -6.4542690    -36.1783700   
9750000000    -2.9891390    -102.0996000  -10.7105300   -139.6051000  -21.5583200   -122.3330000  -6.3194610    -38.9557800   
9775000000    -2.9108590    -103.7376000  -10.9355000   -142.3017000  -21.6639300   -125.2407000  -6.1895690    -41.7226500   
9800000000    -2.8332040    -105.4693000  -11.1723100   -144.9014000  -21.7747100   -128.0817000  -6.0664710    -44.4882200   
9825000000    -2.7588380    -107.1159000  -11.4235900   -147.3922000  -21.8986600   -130.8229000  -5.9454360    -47.2653300   
9850000000    -2.6915820    -108.7729000  -11.6523100   -149.7632000  -22.0204900   -133.5427000  -5.8248910    -50.0491000   
9875000000    -2.6360430    -110.4673000  -11.9285700   -151.9898000  -22.1413100   -136.2401000  -5.7114660    -52.8426500   
9900000000    -2.5852200    -112.2068000  -12.1699800   -154.2368000  -22.2634000   -138.8786000  -5.5957370    -55.6343600   
9925000000    -2.5340970    -113.9580000  -12.4351900   -156.3400000  -22.3971100   -141.4548000  -5.4873210    -58.4202500   
9950000000    -2.4793970    -115.6641000  -12.6740500   -158.2823000  -22.5148800   -143.9668000  -5.3743220    -61.2124700   
9975000000    -2.4416420    -117.3068000  -12.9506700   -160.1171000  -22.6501500   -146.4267000  -5.2613680    -63.9835300   
10000000000   -2.4057840    -119.0054000  -13.1963100   -162.0204000  -22.7715900   -148.8509000  -5.1484180    -66.6571600   
10025000000   -2.3831240    -120.7399000  -13.4307800   -163.7064000  -22.8830900   -151.1611000  -5.0374550    -69.2476600   
10050000000   -2.3542360    -122.5290000  -13.6767900   -165.3535000  -23.0035400   -153.5452000  -4.9414010    -71.8608200   
10075000000   -2.3232940    -124.1565000  -13.9055300   -166.9003000  -23.1172300   -155.8335000  -4.8581270    -74.5131400   
10100000000   -2.3015800    -125.7546000  -14.1083000   -168.2331000  -23.2188000   -158.0272000  -4.7656930    -77.2110700   
10125000000   -2.2907960    -127.3459000  -14.3064800   -169.6100000  -23.3158600   -160.2330000  -4.6714660    -79.8709600   
10150000000   -2.2908660    -129.0158000  -14.5113000   -170.8106000  -23.4040700   -162.3734000  -4.5801500    -82.4355200   
10175000000   -2.2790070    -130.6713000  -14.6693500   -172.1514000  -23.4870600   -164.5045000  -4.4966550    -84.9869700   
10200000000   -2.2685630    -132.2035000  -14.8007400   -173.2167000  -23.5453100   -166.5649000  -4.4217360    -87.5415200   
10225000000   -2.2802590    -133.7938000  -14.9436700   -174.3970000  -23.6071900   -168.6309000  -4.3469690    -90.0964900   
10250000000   -2.2714820    -135.3446000  -15.0470900   -175.6277000  -23.6377000   -170.6826000  -4.2793030    -92.6319900   
10275000000   -2.2814170    -136.9447000  -15.1272400   -176.8115000  -23.6577100   -172.7866000  -4.2124400    -95.1660200   
10300000000   -2.2829170    -138.4319000  -15.1699300   -178.1314000  -23.6656700   -174.8834000  -4.1511790    -97.6970600   
10325000000   -2.2849320    -139.8424000  -15.2306500   -179.5293000  -23.6509400   -176.9859000  -4.0943740    -100.2399000  
10350000000   -2.2972140    -141.2080000  -15.2598400   178.9297000   -23.6205400   -179.1524000  -4.0429310    -102.7302000  
10375000000   -2.3102350    -142.5945000  -15.2482500   177.0789000   -23.5692800   178.5424000   -3.9902260    -105.2368000  
10400000000   -2.3125850    -143.9666000  -15.2501800   175.2395000   -23.5028100   176.1005000   -3.9480240    -107.7189000  
10425000000   -2.3167960    -145.2156000  -15.2751500   173.2005000   -23.4293300   173.6212000   -3.9117950    -110.0869000  
10450000000   -2.3212150    -146.4419000  -15.2878400   170.9649000   -23.3463100   170.8960000   -3.8843510    -112.4200000  
10475000000   -2.3160060    -147.6620000  -15.3134100   168.5198000   -23.2657200   168.0205000   -3.8843340    -114.7673000  
10500000000   -2.3093920    -148.9884000  -15.3640900   165.9358000   -23.1910800   164.9649000   -3.8904880    -117.1396000  
10525000000   -2.2912910    -150.1736000  -15.4531700   163.2832000   -23.1234300   161.7665000   -3.9011450    -119.4706000  
10550000000   -2.2670190    -151.3918000  -15.5712000   160.6043000   -23.0881600   158.5140000   -3.9196110    -121.6029000  
10575000000   -2.2433580    -152.5562000  -15.7239100   158.1571000   -23.0675700   155.2419000   -3.9578130    -123.4833000  
10600000000   -2.2098910    -153.7992000  -15.8748200   155.6375000   -23.0653000   151.9497000   -4.0045070    -125.1937000  
10625000000   -2.1827290    -155.1554000  -16.0513100   153.3001000   -23.0927600   148.8191000   -4.0425800    -126.7330000  
10650000000   -2.1445260    -156.5267000  -16.2777100   151.3023000   -23.1180600   145.8487000   -4.0408540    -128.0174000  
10675000000   -2.1055640    -157.8339000  -16.4631100   149.3680000   -23.1382100   143.1569000   -3.9903080    -129.0065000  
10700000000   -2.0732950    -159.1368000  -16.6202200   147.9899000   -23.1143900   140.6675000   -3.8903110    -129.8787000  
10725000000   -2.0523510    -160.5178000  -16.7574600   146.4395000   -23.0465400   138.1615000   -3.7494590    -130.9489000  
10750000000   -2.0236730    -162.0261000  -16.8675900   144.9811000   -22.9342700   135.6003000   -3.5766210    -132.2957000  
10775000000   -1.9970680    -163.4938000  -16.9502200   143.5222000   -22.7772300   132.9619000   -3.3630380    -133.8864000  
10800000000   -1.9717770    -165.0154000  -16.9872000   142.1000000   -22.5826000   130.0035000   -3.1406310    -135.6898000  
10825000000   -1.9568450    -166.5046000  -17.0319200   140.4453000   -22.3779300   126.8318000   -2.9273700    -137.6975000  
10850000000   -1.9440800    -167.9319000  -17.0326400   138.7744000   -22.1555000   123.4567000   -2.7328620    -139.8822000  
10875000000   -1.9373400    -169.4390000  -17.0117500   137.1548000   -21.9164900   119.8011000   -2.5488810    -142.2623000  
10900000000   -1.9435100    -170.9456000  -16.9637700   135.3251000   -21.6728600   115.9138000   -2.3738020    -144.7648000  
10925000000   -1.9468550    -172.4555000  -16.8860500   133.1514000   -21.4255900   111.7679000   -2.2035510    -147.3792000  
10950000000   -1.9554550    -173.9401000  -16.8170200   131.0364000   -21.1825400   107.3468000   -2.0541540    -150.0910000  
10975000000   -1.9645500    -175.3642000  -16.7011500   128.7280000   -20.9404500   102.7212000   -1.9227340    -152.8324000  
11000000000   -1.9860540    -176.8557000  -16.5719100   125.9788000   -20.7096800   97.8082500    -1.8115090    -155.6972000  
11025000000   -2.0269350    -178.2764000  -16.4421500   122.8499000   -20.4951800   92.6840400    -1.7209320    -158.6668000  
11050000000   -2.0418170    -179.8653000  -16.3085100   119.3778000   -20.2885200   87.2216200    -1.6442620    -161.7526000  
11075000000   -2.0680440    178.7581000   -16.2132000   115.6653000   -20.1315600   81.6378400    -1.5967620    -164.9168000  
11100000000   -2.0935760    177.4655000   -16.1209900   111.6535000   -19.9979600   75.9301300    -1.5750910    -168.0196000  
11125000000   -2.1264420    176.2007000   -16.0540400   107.2914000   -19.8872900   70.0849800    -1.5793690    -171.1267000  
11150000000   -2.1745850    174.9319000   -16.0385300   102.5991000   -19.8238000   64.2357100    -1.6171450    -174.2457000  
11175000000   -2.2136780    173.6137000   -16.0644100   97.8471500    -19.7914400   58.4000600    -1.6915730    -177.3075000  
11200000000   -2.2442310    172.2654000   -16.1278500   92.8156200    -19.7747600   52.6840600    -1.7817360    179.7147000   
11225000000   -2.2762700    171.0262000   -16.2429300   87.7255100    -19.7684500   47.1767800    -1.8951230    176.8348000   
11250000000   -2.3180910    169.8146000   -16.3813400   82.4781900    -19.7461100   41.8496300    -2.0257480    174.0865000   
11275000000   -2.3749390    168.5197000   -16.5466200   77.1569900    -19.6888100   36.6263300    -2.1742580    171.4431000   
11300000000   -2.4323780    167.2238000   -16.7587500   71.5471600    -19.5746300   31.3943500    -2.3484680    168.8518000   
11325000000   -2.5024150    165.8474000   -16.9820700   65.7364900    -19.3994800   25.9427800    -2.5503130    166.3037000   
11350000000   -2.5780090    164.6270000   -17.2381500   59.4901900    -19.1554500   20.0335000    -2.7815690    163.8452000   
11375000000   -2.6716000    163.5061000   -17.5993000   52.7980500    -18.8734500   13.3622400    -3.0700080    161.7095000   
11400000000   -2.7768370    162.4939000   -18.1191500   45.6537400    -18.6123000   5.6316910     -3.4231050    160.1452000   
11425000000   -2.8920590    161.5849000   -18.8347500   38.6819200    -18.4693000   -3.0846060    -3.8127520    159.4544000   
11450000000   -3.0261690    160.7210000   -19.7767800   32.5394700    -18.5127300   -12.1392500   -4.1228630    159.7502000   
11475000000   -3.1852930    160.0695000   -20.6802400   28.3451400    -18.7079100   -20.7450200   -4.2495770    160.6024000   
11500000000   -3.3789700    159.7614000   -21.4273800   24.9668000    -18.9577500   -28.6065500   -4.2253890    161.3566000   
11525000000   -3.5654590    160.2794000   -21.9350300   21.0327800    -19.1591300   -36.0855400   -4.1224180    161.5922000   
11550000000   -3.6634680    161.5654000   -22.3805200   15.3262700    -19.3242900   -43.8725700   -4.0071210    161.1505000   
11575000000   -3.5840080    163.2966000   -22.9543700   7.5223720     -19.5075300   -52.2931400   -3.8784970    160.2651000   
11600000000   -3.3341280    164.5197000   -23.8773500   -1.7394710    -19.8320800   -61.1926800   -3.7382510    159.2685000   
11625000000   -2.9742900    164.7175000   -25.1275400   -11.3474500   -20.3134900   -70.0098800   -3.6059920    158.2345000   
11650000000   -2.6101760    164.0156000   -26.7514400   -20.5915400   -20.9134700   -78.2535700   -3.5028630    157.0280000   
11675000000   -2.3021660    162.6545000   -28.7070800   -28.9632200   -21.6011000   -85.7573300   -3.4164930    155.5188000   
11700000000   -2.0741350    160.9414000   -30.9856800   -37.4175900   -22.3235600   -92.4446400   -3.3166770    153.8917000   
11725000000   -1.9023120    159.0897000   -33.7158500   -45.6379500   -23.0344600   -98.4542800   -3.2209440    152.3681000   
11750000000   -1.7777310    157.1235000   -36.9828900   -56.2070400   -23.7314000   -104.0001000  -3.1477020    150.9211000   
11775000000   -1.6966640    155.1923000   -41.1027700   -70.4482900   -24.4120100   -109.1020000  -3.1069440    149.3268000   
11800000000   -1.6235350    153.3942000   -46.6240900   -100.1756000  -25.0507100   -113.8319000  -3.0648830    147.5676000   
11825000000   -1.5675430    151.6652000   -48.8794700   -161.6283000  -25.6779400   -118.3541000  -3.0063790    145.8262000   
11850000000   -1.5370980    150.0566000   -44.2351300   157.4195000   -26.2856100   -122.5597000  -2.9543620    144.2545000   
11875000000   -1.5102690    148.4187000   -41.1451700   139.2049000   -26.8613700   -126.6210000  -2.9313570    142.7470000   
11900000000   -1.4934870    146.8829000   -38.9518400   130.9212000   -27.4185500   -130.4647000  -2.9168950    141.0292000   
11925000000   -1.4715310    145.3295000   -37.4326000   125.6098000   -27.9769600   -134.1000000  -2.8958340    139.2187000   
11950000000   -1.4615960    143.8370000   -36.2465000   119.4162000   -28.5241100   -137.5140000  -2.8593420    137.5487000   
11975000000   -1.4415190    142.4754000   -35.5899300   116.1834000   -29.0405800   -140.6909000  -2.8334150    136.0297000   
12000000000   -1.4340660    141.0645000   -35.0182800   112.1532000   -29.5368400   -143.6263000  -2.8325290    134.4801000   
12025000000   -1.4236730    139.6417000   -34.5718300   109.2681000   -30.0011100   -146.4210000  -2.8240360    132.7361000   
12050000000   -1.4133600    138.2482000   -34.2256400   106.5849000   -30.4538100   -149.0902000  -2.8053000    130.9492000   
12075000000   -1.4088050    136.8891000   -34.0717700   103.9042000   -30.8709400   -151.4118000  -2.7747550    129.3310000   
12100000000   -1.3993230    135.5725000   -34.0416200   104.0737000   -31.2485500   -153.7590000  -2.7607390    127.7541000   
12125000000   -1.3965200    134.2020000   -33.9972600   102.5615000   -31.5954200   -155.9480000  -2.7553840    126.1173000   
12150000000   -1.3986120    132.8658000   -33.7743300   100.7406000   -31.9044800   -158.0744000  -2.7400510    124.3877000   
12175000000   -1.3922090    131.4453000   -33.6934700   100.1273000   -32.1898500   -160.2833000  -2.7184200    122.7171000   
12200000000   -1.3859710    130.1078000   -33.5941000   100.0593000   -32.4334400   -162.3387000  -2.6967720    121.1370000   
12225000000   -1.3821560    128.8376000   -33.5407200   100.1706000   -32.6596400   -164.4324000  -2.6894120    119.5590000   
12250000000   -1.3892320    127.5046000   -33.2408500   100.4810000   -32.8772300   -166.6232000  -2.6818420    117.9379000   
12275000000   -1.3872630    126.2077000   -33.1556800   101.0581000   -33.0545100   -168.8210000  -2.6723690    116.3320000   
12300000000   -1.3858160    124.8817000   -32.9434100   101.5206000   -33.2172900   -171.0078000  -2.6594970    114.8302000   
12325000000   -1.3885480    123.5648000   -32.6281800   102.1230000   -33.3699100   -173.3480000  -2.6574850    113.3010000   
12350000000   -1.3900290    122.2817000   -32.4497000   101.3642000   -33.5214000   -175.7555000  -2.6642720    111.7038000   
12375000000   -1.3918620    121.0117000   -32.1033400   101.0485000   -33.6429600   -178.1715000  -2.6642940    110.0683000   
12400000000   -1.4013360    119.7017000   -31.8179600   100.5852000   -33.7738100   179.3186000   -2.6538960    108.4711000   
12425000000   -1.4094000    118.4395000   -31.6067700   100.5429000   -33.9020700   176.7899000   -2.6404710    106.9029000   
12450000000   -1.4133730    117.0997000   -31.2792200   99.3064900    -34.0332100   174.1338000   -2.6377650    105.3636000   
12475000000   -1.4173920    115.8531000   -30.9452200   98.5344300    -34.1769500   171.5963000   -2.6411900    103.8260000   
12500000000   -1.4278880    114.5630000   -30.6985800   97.2028200    -34.3159000   168.9383000   -2.6402620    102.3078000   
12525000000   -1.4351700    113.3506000   -30.4200100   96.0893900    -34.4491800   166.2166000   -2.6302070    100.7684000   
12550000000   -1.4520940    112.1278000   -30.1712300   94.7207000    -34.6052000   163.6383000   -2.6337450    99.2505800    
12575000000   -1.4494610    110.8257000   -29.8989900   92.7528300    -34.7593500   160.8728000   -2.6380600    97.6814900    
12600000000   -1.4557350    109.5379000   -29.6948200   91.0954600    -34.9390300   158.1328000   -2.6459240    96.0118200    
12625000000   -1.4712700    108.2893000   -29.5182600   89.3978700    -35.1400500   155.5371000   -2.6434970    94.3534200    
12650000000   -1.4919930    107.0525000   -29.4017400   87.7050900    -35.3517700   152.9580000   -2.6297780    92.7092200    
12675000000   -1.5037330    105.7398000   -29.1654300   85.6765300    -35.5861700   150.4248000   -2.6230990    91.0939600    
12700000000   -1.5130010    104.5349000   -29.0748300   83.5973500    -35.8368100   148.0715000   -2.6251660    89.4505900    
12725000000   -1.5220760    103.3011000   -29.0046200   81.7484200    -36.1254900   145.8653000   -2.6282320    87.7403800    
12750000000   -1.5276710    102.0939000   -28.9597500   79.8813900    -36.4095800   143.8608000   -2.6205600    85.9865800    
12775000000   -1.5579520    100.8890000   -28.9192100   77.7854900    -36.7283000   142.2798000   -2.6127560    84.2905400    
12800000000   -1.5666080    99.6022500    -28.9161100   76.6551600    -37.0352700   140.8518000   -2.6128120    82.6063900    
12825000000   -1.5808050    98.3691900    -28.8975600   75.2756600    -37.3660100   139.8813000   -2.6240720    80.8801100    
12850000000   -1.6001360    97.1207700    -28.9720000   73.9950600    -37.6793300   139.3894000   -2.6287650    79.1059900    
12875000000   -1.6122780    95.9384700    -29.0175900   72.9256000    -37.9698800   139.4531000   -2.6359310    77.3689000    
12900000000   -1.6319550    94.7275200    -28.9879400   72.2219800    -38.1608000   139.8843000   -2.6446970    75.6870900    
12925000000   -1.6478980    93.4578800    -28.9909500   71.4138000    -38.3078900   140.5321000   -2.6676240    73.9577100    
12950000000   -1.6696650    92.2024400    -29.0924000   71.3044700    -38.3607600   141.6086000   -2.7064240    72.1230900    
12975000000   -1.6833400    91.0315000    -28.9988300   71.1086000    -38.3312600   142.5424000   -2.7239150    70.2626500    
13000000000   -1.7061340    89.7559700    -28.9203400   70.7473800    -38.2139600   143.4327000   -2.7382690    68.4862700    
13025000000   -1.7327750    88.5157700    -28.8675900   70.8124500    -38.0154200   144.1497000   -2.7628190    66.7975900    
13050000000   -1.7426080    87.2444600    -28.7296100   70.9387900    -37.7379900   144.4520000   -2.8007740    65.1094300    
13075000000   -1.7672520    85.9881800    -28.5706500   71.4349400    -37.4326100   144.3518000   -2.8365970    63.3511600    
13100000000   -1.7765700    84.8313400    -28.3940400   71.2972400    -37.0948000   143.7867000   -2.8600970    61.6234000    
13125000000   -1.8014200    83.6388600    -28.0505600   71.0427200    -36.7315200   142.8692000   -2.8870760    59.9525000    
13150000000   -1.8343640    82.3390300    -27.7816500   70.7102200    -36.3947800   141.6202000   -2.9333100    58.3088100    
13175000000   -1.8556440    81.1013900    -27.4415000   70.2628200    -36.0681400   140.0491000   -2.9801510    56.5718600    
13200000000   -1.8844410    79.8107800    -27.1562700   69.9545900    -35.7509400   138.2446000   -3.0168410    54.7944100    
13225000000   -1.9002940    78.5846800    -26.7840000   68.8070800    -35.4623700   136.3332000   -3.0466410    53.0351000    
13250000000   -1.9359670    77.2977800    -26.4670400   67.9995300    -35.1853800   134.3333000   -3.0960720    51.3162300    
13275000000   -1.9545000    75.9597800    -26.1442000   66.5582500    -34.9069700   132.2240000   -3.1468360    49.5573300    
13300000000   -1.9938530    74.6299600    -25.8236700   65.5739500    -34.6653500   130.0155000   -3.1845880    47.7336300    
13325000000   -2.0175780    73.4021700    -25.4529900   63.7590200    -34.4140300   127.9308000   -3.2284520    45.9531600    
13350000000   -2.0430230    72.3052000    -25.1687800   62.5176700    -34.1838400   125.6772000   -3.2746270    44.1813800    
13375000000   -2.0822980    71.0061500    -24.8769300   60.1187400    -33.9604700   123.4737000   -3.3414550    42.3750700    
13400000000   -2.1150020    69.7866800    -24.5265500   58.1952900    -33.7233100   121.2506000   -3.3933450    40.5403900    
13425000000   -2.1557720    68.5593100    -24.2620100   56.2786000    -33.4973000   119.0096000   -3.4372980    38.7330100    
13450000000   -2.1941650    67.3642600    -23.9790100   54.4348700    -33.2592700   116.7388000   -3.4920510    36.9960200    
13475000000   -2.2156910    66.1853100    -23.7144200   52.2107800    -33.0127700   114.3775000   -3.5673540    35.2064400    
13500000000   -2.2493580    64.8782400    -23.4495300   50.1288500    -32.7725100   111.9289000   -3.6455630    33.2841200    
13525000000   -2.2934560    63.6542900    -23.2055000   48.1088800    -32.5462000   109.3546000   -3.7029650    31.3473200    
13550000000   -2.3110390    62.3042800    -22.9558400   45.7080000    -32.3107100   106.6786000   -3.7580140    29.5316100    
13575000000   -2.3336110    61.0160800    -22.6829100   43.4110000    -32.0914900   103.9026000   -3.8264650    27.8805100    
13600000000   -2.3597710    59.7265900    -22.4747900   41.0699100    -31.8840500   101.1084000   -3.9041400    26.2008000    
13625000000   -2.3986510    58.4659400    -22.2313500   38.5087700    -31.7121500   98.2075900    -3.9752600    24.4298200    
13650000000   -2.4284210    57.0619400    -21.9974000   35.9321700    -31.5524500   95.3128300    -4.0473530    22.7450900    
13675000000   -2.4669260    55.8089900    -21.7503300   33.3855400    -31.4184300   92.4169800    -4.1083180    21.1580400    
13700000000   -2.4966610    54.4194800    -21.5583300   30.5260700    -31.3061300   89.5519900    -4.1856060    19.6132300    
13725000000   -2.5445090    53.0222800    -21.3747100   27.4420200    -31.2028800   86.8080800    -4.2584460    18.0045200    
13750000000   -2.5881880    51.5722200    -21.1924100   24.5747200    -31.1447000   84.1529000    -4.3231450    16.4324800    
13775000000   -2.6361610    50.0955800    -21.0457600   21.4280600    -31.0966700   81.6707400    -4.3778100    14.9554600    
13800000000   -2.6890480    48.7329300    -20.9545300   18.1074900    -31.0748200   79.3694400    -4.4239330    13.5381500    
13825000000   -2.7469640    47.1642700    -20.8728500   14.7609700    -31.0412100   77.3317500    -4.4576980    12.0632200    
13850000000   -2.8064020    45.6938800    -20.8852300   11.5032400    -31.0384800   75.5738400    -4.4616090    10.5864500    
13875000000   -2.8568370    44.0937800    -20.9272800   7.8361720     -31.0303000   74.2196000    -4.4367380    9.1710590     
13900000000   -2.9272250    42.6195500    -21.0637200   4.7378640     -31.0306200   73.2593500    -4.3780420    7.7835370     
13925000000   -3.0006100    41.1781200    -21.2882100   1.4774070     -31.0020000   72.9835400    -4.3005690    6.2581600     
13950000000   -3.0836120    39.6047300    -21.7029900   -1.0888720    -30.8849100   73.2599700    -4.1823360    4.4547220     
13975000000   -3.1782270    37.9784800    -22.1690700   -2.8556230    -30.6432500   74.0454700    -4.0240870    2.2972410     
14000000000   -3.2731810    36.3064900    -22.8240700   -2.7419440    -30.2372300   75.0332200    -3.8360470    -0.2667214    
14025000000   -3.3729500    34.7236700    -23.4957600   -0.0353711    -29.6334600   75.7134100    -3.6571710    -3.2965550    
14050000000   -3.4871590    33.0856600    -23.8672100   5.7367550     -28.8649000   75.4613000    -3.5131790    -6.8654930    
14075000000   -3.6316690    31.3396300    -23.6056200   12.8009300    -28.0327100   73.8622300    -3.4210000    -10.8660500   
14100000000   -3.7874920    29.5882500    -22.7511500   18.6234200    -27.2145100   71.0414700    -3.3944270    -15.2468100   
14125000000   -3.9391180    27.9005200    -21.5972100   21.4423900    -26.4783300   67.2849200    -3.4314170    -19.7196900   
14150000000   -4.0998310    26.2927600    -20.4486200   21.5891700    -25.8364500   62.9911700    -3.5282420    -24.0359100   
14175000000   -4.2776090    24.8203000    -19.3658200   19.8567200    -25.2902300   58.5138800    -3.6741420    -28.1320200   
14200000000   -4.4758600    23.3640900    -18.4429700   17.0142900    -24.8143100   53.9114200    -3.8655010    -32.1073700   
14225000000   -4.6812140    21.8236000    -17.6329200   13.3612100    -24.3989000   49.2785000    -4.0734370    -36.0342100   
14250000000   -4.8935870    20.3701100    -16.9563400   9.4757860     -24.0393400   44.7556300    -4.2900460    -39.8110400   
14275000000   -5.1275970    18.9322400    -16.3430800   5.4411120     -23.7210700   40.3365700    -4.5035390    -43.3403300   
14300000000   -5.3641760    17.5896500    -15.8089800   1.3502050     -23.4098700   36.0438500    -4.7377900    -46.6893100   
14325000000   -5.6179180    16.3272000    -15.3380000   -2.7266810    -23.1190500   31.8102700    -4.9830240    -50.1143700   
14350000000   -5.8994270    15.0782800    -14.9169300   -6.9522300    -22.8387200   27.6459600    -5.2323780    -53.6357400   
14375000000   -6.1792480    13.8951900    -14.5464100   -11.1390800   -22.5673700   23.5352300    -5.4605700    -57.1653100   
14400000000   -6.4727510    12.7974700    -14.1751200   -15.1765400   -22.3059300   19.4135500    -5.6889810    -60.5585200   
14425000000   -6.7885140    11.8387300    -13.8412000   -19.2567600   -22.0509300   15.3723800    -5.9300310    -63.9440700   
14450000000   -7.1286780    11.0554600    -13.5418800   -23.2576400   -21.7955300   11.3146900    -6.1734700    -67.4478100   
14475000000   -7.4717600    10.3544600    -13.2408500   -27.2371500   -21.5382900   7.3125920     -6.4047190    -71.0554400   
14500000000   -7.8333070    9.7335260     -12.9706800   -31.3107200   -21.2892400   3.2566370     -6.6271070    -74.6062700   
14525000000   -8.2087130    9.4188940     -12.7065200   -35.2700500   -21.0448300   -0.8005525    -6.8602740    -78.1634900   
14550000000   -8.5782370    9.3666970     -12.4525900   -39.2379200   -20.7960300   -4.8763590    -7.0930090    -81.7744700   
14575000000   -8.9731340    9.6041440     -12.2217300   -43.1538600   -20.5533600   -8.9939580    -7.3375040    -85.5157400   
14600000000   -9.3916080    10.0030900    -11.9969100   -47.1644100   -20.3107000   -13.1389400   -7.5605220    -89.2932600   
14625000000   -9.7956260    10.4435600    -11.7815500   -51.1528500   -20.0724700   -17.3381600   -7.7956560    -93.0995000   
14650000000   -10.1768600   11.1646700    -11.5717100   -55.0547500   -19.8428600   -21.5807800   -8.0306300    -96.9795800   
14675000000   -10.5187200   12.3584900    -11.3680500   -59.0437800   -19.6120700   -25.8201200   -8.2652540    -100.8668000  
14700000000   -10.8733500   14.0426200    -11.1827600   -62.9538100   -19.3872600   -30.1529800   -8.4934750    -104.8283000  
14725000000   -11.2204500   15.9524700    -10.9966900   -66.9581900   -19.1640800   -34.5554000   -8.7286600    -108.7779000  
14750000000   -11.5484300   18.0590300    -10.8164700   -70.9232600   -18.9472400   -39.0084400   -8.9611750    -112.7625000  
14775000000   -11.8090700   20.2526500    -10.6407100   -75.0190600   -18.7287400   -43.5701700   -9.1778480    -116.6137000  
14800000000   -11.9909400   22.8135100    -10.4878900   -79.1083700   -18.5252200   -48.2476100   -9.4201530    -120.3621000  
14825000000   -12.1426000   25.7912800    -10.3318800   -83.1902000   -18.3300900   -53.0549800   -9.6818430    -124.0592000  
14850000000   -12.2491600   28.8847200    -10.1911500   -87.4277600   -18.1420900   -58.0016400   -9.9155880    -127.7377000  
14875000000   -12.3060800   31.8457600    -10.0555500   -91.6204600   -17.9857000   -63.1666300   -10.1177600   -131.1339000  
14900000000   -12.2666300   34.6408500    -9.9446980    -95.9346200   -17.8651200   -68.4425700   -10.2988700   -133.9789000  
14925000000   -12.1417700   37.4129800    -9.8546640    -100.2809000  -17.7846100   -73.8621100   -10.4684500   -136.5041000  
14950000000   -11.9543300   40.3879200    -9.7951890    -104.5585000  -17.7638500   -79.3219700   -10.5854500   -139.1143000  
14975000000   -11.7755000   43.1487900    -9.7625240    -108.8693000  -17.8001800   -84.7126500   -10.5544300   -141.8756000  
15000000000   -11.5690200   45.5928600    -9.7533230    -113.0547000  -17.8997100   -89.9037200   -10.3937900   -144.4894000  
15025000000   -11.2971700   47.4825700    -9.7516200    -117.0998000  -18.0417100   -94.7681000   -10.1996400   -147.1617000  
15050000000   -10.9572900   49.2160300    -9.7614300    -121.0798000  -18.2084900   -99.2545100   -10.0169600   -150.4875000  
15075000000   -10.5678300   51.0102100    -9.7768790    -124.9118000  -18.3759200   -103.3652000  -9.7887750    -154.6949000  
15100000000   -10.1870900   52.5348500    -9.7801990    -128.6983000  -18.5341500   -107.1866000  -9.4999230    -159.1355000  
15125000000   -9.7879770    53.7228900    -9.7987610    -132.4486000  -18.6695600   -110.7707000  -9.2274110    -163.2796000  
15150000000   -9.3659200    54.4579800    -9.7994400    -136.1188000  -18.7772300   -114.2259000  -9.0410210    -167.3996000  
15175000000   -8.9294270    54.8647000    -9.8185510    -139.7885000  -18.8719200   -117.6261000  -8.9079360    -171.9971000  
15200000000   -8.4848230    55.0338600    -9.8373570    -143.5244000  -18.9474400   -121.0320000  -8.7375970    -176.8827000  
15225000000   -8.0669780    54.9864200    -9.8626770    -147.2691000  -19.0240200   -124.4269000  -8.5361640    178.5259000   
15250000000   -7.6646040    54.5720600    -9.9002700    -150.9574000  -19.0887600   -127.8196000  -8.3788030    174.2869000   
15275000000   -7.2717920    53.8050200    -9.9357090    -154.5937000  -19.1583000   -131.2380000  -8.2739620    169.9620000   
15300000000   -6.8786790    52.8804700    -9.9867430    -158.2559000  -19.2269500   -134.6740000  -8.1511260    165.3721000   
15325000000   -6.5018650    51.9064700    -10.0586700   -161.9024000  -19.3104000   -138.0976000  -7.9979440    160.8622000   
15350000000   -6.1605190    50.7650000    -10.1409000   -165.4902000  -19.3960000   -141.4710000  -7.8510130    156.7410000   
15375000000   -5.8508000    49.4620700    -10.2217800   -169.0114000  -19.4875500   -144.8684000  -7.7423670    152.7198000   
15400000000   -5.5437170    48.0021600    -10.3193800   -172.4202000  -19.5973700   -148.1472000  -7.6655980    148.5554000   
15425000000   -5.2484650    46.4473000    -10.4353000   -175.8864000  -19.7206600   -151.3987000  -7.5770960    144.3462000   
15450000000   -4.9768090    44.8798000    -10.5546300   -179.2080000  -19.8484800   -154.5833000  -7.4785190    140.2783000   
15475000000   -4.7265940    43.3327000    -10.6800100   177.5554000   -19.9958300   -157.6657000  -7.4103850    136.3252000   
15500000000   -4.4898270    41.6729400    -10.8273400   174.4678000   -20.1499900   -160.6215000  -7.3705350    132.3552000   
15525000000   -4.2705260    39.9181800    -10.9781800   171.4144000   -20.3162900   -163.4816000  -7.3355030    128.4038000   
15550000000   -4.0632580    38.1650800    -11.1252000   168.4660000   -20.4986400   -166.1626000  -7.3274100    124.5529000   
15575000000   -3.8659790    36.3441800    -11.2968500   165.7167000   -20.6937100   -168.6578000  -7.3689230    120.7376000   
15600000000   -3.6849990    34.5346800    -11.4606700   163.1085000   -20.8919000   -170.8170000  -7.4444830    116.8929000   
15625000000   -3.5210360    32.6511100    -11.6301600   160.6841000   -21.0934400   -172.7504000  -7.5411680    113.2099000   
15650000000   -3.3575380    30.7566500    -11.7880900   158.5099000   -21.2881900   -174.3062000  -7.7016730    109.9117000   
15675000000   -3.2172730    28.8655700    -11.9383300   156.5486000   -21.4593900   -175.3702000  -7.9654320    107.0748000   
15700000000   -3.0850680    26.9489300    -12.0681900   154.7594000   -21.5754500   -176.0149000  -8.3296740    104.6507000   
15725000000   -2.9642930    25.0539300    -12.1787900   153.1385000   -21.6055600   -176.1881000  -8.7472960    103.0971000   
15750000000   -2.8569120    23.0826000    -12.2431100   151.6514000   -21.5029400   -176.2925000  -9.1234870    103.2314000   
15775000000   -2.7587810    21.2198800    -12.2713100   150.3117000   -21.2421900   -176.6285000  -9.3027250    105.4168000   
15800000000   -2.6624570    19.3918200    -12.2570000   148.9435000   -20.8685000   -177.9653000  -9.1084910    108.3299000   
15825000000   -2.5899780    17.5015000    -12.2107800   147.4948000   -20.5075300   179.5301000   -8.5412500    109.4609000   
15850000000   -2.5162860    15.6453500    -12.1379600   146.1066000   -20.2458000   176.3020000   -7.8785720    107.7876000   
15875000000   -2.4416540    13.7420800    -12.0235600   144.5594000   -20.0940500   173.0075000   -7.3848870    104.4179000   
15900000000   -2.3725820    11.8825900    -11.8768200   142.9728000   -20.0133000   170.0183000   -7.1438540    100.7123000   
15925000000   -2.3029270    10.1132500    -11.6748100   141.1234000   -19.9359400   167.3268000   -7.0951190    97.2669400    
15950000000   -2.2447940    8.3741540     -11.4508400   138.8824000   -19.8367400   164.7914000   -7.1249480    94.2941000    
15975000000   -2.1924770    6.5667340     -11.2305400   136.3127000   -19.7218500   162.2401000   -7.1700000    91.9687400    
16000000000   -2.1362640    4.7950150     -11.0186500   133.4701000   -19.5933300   159.6317000   -7.1878350    90.3816500    
16025000000   -2.0848460    3.0519690     -10.8285100   130.3370000   -19.4505900   156.9012000   -7.1743920    89.3197000    
16050000000   -2.0242890    1.3390440     -10.6496600   127.0535000   -19.2969600   153.9900000   -7.1284710    88.4413000    
16075000000   -1.9790680    -0.3733384    -10.5112100   123.6178000   -19.1657300   150.9525000   -7.0469360    87.4697300    
16100000000   -1.9433690    -2.2221780    -10.4057200   120.1212000   -19.0499900   147.8037000   -6.9102830    86.4852800    
16125000000   -1.9038610    -4.0802580    -10.3125300   116.6263000   -18.9488600   144.6534000   -6.7391120    85.5006000    
16150000000   -1.8628200    -5.9683750    -10.2558200   113.0669000   -18.8649000   141.4302000   -6.5664710    84.4040100    
16175000000   -1.8190240    -7.7588420    -10.2120000   109.5644000   -18.7880300   138.2454000   -6.4054860    83.0464900    
16200000000   -1.7915610    -9.6056490    -10.1772100   106.0330000   -18.7341200   134.9787000   -6.2334790    81.3761300    
16225000000   -1.7751030    -11.3849700   -10.1680800   102.6454000   -18.6902900   131.8373000   -6.0326680    79.6509000    
16250000000   -1.7454340    -13.2404300   -10.1666900   99.3239400    -18.6526200   128.7600000   -5.8390850    78.0383100    
16275000000   -1.7198940    -15.1024800   -10.1495600   96.0675400    -18.6076100   125.6503000   -5.6701280    76.4522100    
16300000000   -1.7077650    -16.9912300   -10.1632200   92.7280000    -18.5817600   122.5157000   -5.5391180    74.6475000    
16325000000   -1.7068770    -18.9140600   -10.1716800   89.4787300    -18.5585300   119.4360000   -5.4028090    72.5992000    
16350000000   -1.7040100    -20.8572500   -10.1907500   86.2207300    -18.5428900   116.3997000   -5.2485430    70.5630300    
16375000000   -1.6857030    -22.7991700   -10.2020300   82.9908000    -18.5227200   113.4074000   -5.1087340    68.7322300    
16400000000   -1.6751590    -24.6170300   -10.2090900   79.9356800    -18.4942400   110.4533000   -4.9954540    66.9076000    
16425000000   -1.6817560    -26.4578700   -10.2406900   76.7242600    -18.4868000   107.4135000   -4.9238000    64.8548500    
16450000000   -1.7026130    -28.3681400   -10.2516100   73.6154600    -18.4684800   104.4657000   -4.8279370    62.7010400    
16475000000   -1.7147990    -30.3563200   -10.2577700   70.4635800    -18.4351800   101.4772000   -4.7082830    60.6869200    
16500000000   -1.7239360    -32.3560300   -10.2678000   67.3028600    -18.4246700   98.4806000    -4.6287800    58.8403900    
16525000000   -1.7299750    -34.3001400   -10.2770500   64.1575700    -18.4060900   95.4682700    -4.5843030    56.9509800    
16550000000   -1.7584280    -36.0937800   -10.2923700   61.0045400    -18.3829600   92.4812800    -4.5348250    54.8637700    
16575000000   -1.7881120    -38.0093900   -10.2926600   57.8091500    -18.3575800   89.3872100    -4.4774090    52.7785800    
16600000000   -1.8257560    -40.0516600   -10.3014200   54.5510700    -18.3354200   86.2757900    -4.4306850    50.8787600    
16625000000   -1.8495370    -42.1403300   -10.2841000   51.1293900    -18.3058500   83.0479400    -4.4059260    49.0224800    
16650000000   -1.8783440    -44.0808800   -10.3014200   47.7415700    -18.2939300   79.7728200    -4.4141960    46.9983600    
16675000000   -1.9202370    -45.9633600   -10.3238800   44.1725300    -18.2887400   76.3828300    -4.4109400    44.9208100    
16700000000   -1.9686850    -47.8192100   -10.3436800   40.5150600    -18.2846700   72.9523800    -4.3973880    43.0396600    
16725000000   -2.0172910    -49.8712700   -10.3666200   36.6393100    -18.2869700   69.2184600    -4.4092470    41.3713300    
16750000000   -2.0479960    -51.8119000   -10.4090300   32.6183900    -18.3275700   65.3524200    -4.4830310    39.7048100    
16775000000   -2.0863020    -53.6770000   -10.5013800   28.4345700    -18.4096000   61.3391800    -4.5627590    38.0194400    
16800000000   -2.1130440    -55.4266900   -10.6323200   24.0095800    -18.5289700   57.1405400    -4.6281230    36.5571700    
16825000000   -2.1517160    -57.2183300   -10.8438800   19.3854500    -18.7379100   52.7578700    -4.7162420    35.4792900    
16850000000   -2.1586600    -59.1946500   -11.1448500   14.7039100    -19.0515800   48.3556600    -4.8303680    34.7633700    
16875000000   -2.1397830    -61.2627300   -11.5678600   10.2488000    -19.4851700   44.3281800    -4.9132640    34.2440000    
16900000000   -2.1136420    -63.5054100   -12.1234900   6.4524390     -20.0745900   41.0126000    -4.9319750    33.8786900    
16925000000   -2.0869260    -65.8402600   -12.7799100   3.7887230     -20.7400600   39.0370400    -4.8693450    33.7759400    
16950000000   -2.0794550    -68.4744700   -13.4141600   2.3101920     -21.3891500   38.5659600    -4.7539750    33.6506100    
16975000000   -2.0951500    -71.3196300   -14.0032500   2.0286400     -21.9303000   39.5216700    -4.6461910    33.1071500    
17000000000   -2.1367370    -74.2706700   -14.4527400   2.8279070     -22.2721000   41.5389100    -4.5222730    32.1520500    
17025000000   -2.2022800    -77.3008200   -14.7142700   3.9210930     -22.3701400   43.7796900    -4.3650120    31.0298500    
17050000000   -2.2959690    -80.2701500   -14.8329600   5.0179650     -22.2779400   45.7406600    -4.2217040    29.9641900    
17075000000   -2.4078840    -83.2182600   -14.8373500   5.9001950     -22.0278900   47.0234600    -4.1078690    28.9782000    
17100000000   -2.5324320    -86.1506800   -14.6866500   6.4871790     -21.6788400   47.5199300    -4.0149200    27.8333300    
17125000000   -2.6889370    -89.1512100   -14.5079400   6.4215540     -21.2971200   47.1561100    -3.9157370    26.5179100    
17150000000   -2.8463930    -92.0485500   -14.2601500   5.9113980     -20.8837800   46.1867600    -3.7864330    25.1996400    
17175000000   -3.0101530    -95.1663100   -14.0063800   5.0091990     -20.4943200   44.5050400    -3.6546920    23.9233800    
17200000000   -3.1774580    -98.1993600   -13.7378300   3.5198350     -20.1284100   42.3511400    -3.5439740    22.6741000    
17225000000   -3.3647300    -101.1624000  -13.4774100   1.6173140     -19.8012700   39.9021800    -3.4440240    21.2787000    
17250000000   -3.5582720    -104.2755000  -13.2138800   -0.4974308    -19.5027700   37.0911500    -3.3521120    19.6837800    
17275000000   -3.7634990    -107.4776000  -12.9699800   -2.9159450    -19.2456600   34.1592800    -3.2539080    18.0185800    
17300000000   -3.9660580    -110.8056000  -12.7635500   -5.6685170    -19.0238900   31.0658800    -3.1540990    16.4101400    
17325000000   -4.1675280    -114.0650000  -12.5765900   -8.4218910    -18.8330400   27.9085100    -3.0679950    14.8881700    
17350000000   -4.4063630    -117.3216000  -12.4091900   -11.3278300   -18.6587100   24.6894800    -2.9994550    13.3796000    
17375000000   -4.6687200    -120.7525000  -12.2644900   -14.3788100   -18.5048800   21.4448400    -2.9391320    11.7731300    
17400000000   -4.9346120    -124.4107000  -12.1376400   -17.4834400   -18.3762200   18.1823300    -2.8809980    10.1148200    
17425000000   -5.2103870    -128.2171000  -12.0326600   -20.6853900   -18.2765200   14.8762300    -2.8128530    8.5573340     
17450000000   -5.5051040    -131.8453000  -11.9333200   -23.7533400   -18.1908900   11.6267900    -2.7575110    7.1120200     
17475000000   -5.8354680    -135.7627000  -11.8361000   -26.9407600   -18.1028800   8.3895480     -2.7156610    5.7491300     
17500000000   -6.1838400    -139.9851000  -11.7605600   -30.1907200   -18.0155300   5.0551340     -2.6764010    4.1853040     
17525000000   -6.5252570    -144.3602000  -11.7094200   -33.5154000   -17.9663500   1.6754460     -2.6457520    2.4606570     
17550000000   -6.8672930    -148.6542000  -11.6676500   -36.7419300   -17.9190100   -1.5698130    -2.5917070    0.8988178     
17575000000   -7.2664650    -152.9535000  -11.6245700   -39.9697000   -17.8803100   -4.8552730    -2.5466820    -0.5286441    
17600000000   -7.7238360    -157.7399000  -11.6013800   -43.2974100   -17.8496600   -8.1414510    -2.5107850    -1.9280190    
17625000000   -8.1755040    -162.9519000  -11.5757200   -46.4676200   -17.8277400   -11.4574800   -2.4758060    -3.4282140    
17650000000   -8.6044800    -168.4672000  -11.5746200   -49.8710400   -17.8218800   -14.8463800   -2.4305460    -4.9878260    
17675000000   -9.0413850    -173.7283000  -11.5773600   -53.1793300   -17.8423700   -18.1916500   -2.3921070    -6.4207940    
17700000000   -9.5693490    -179.2906000  -11.5861700   -56.3524700   -17.8595000   -21.3850300   -2.3618560    -7.6945100    
17725000000   -10.1527800   174.3870000   -11.6101400   -59.6424000   -17.8801300   -24.6618700   -2.3404170    -9.0560850    
17750000000   -10.6711600   167.2694000   -11.6545900   -62.7736900   -17.9304700   -27.9687100   -2.3285860    -10.5797500   
17775000000   -11.1249300   160.1441000   -11.7033800   -66.0278100   -17.9954200   -31.2165700   -2.3113820    -12.0831700   
17800000000   -11.5712100   153.0024000   -11.7297000   -69.0150500   -18.0576000   -34.3259900   -2.2922690    -13.4669000   
17825000000   -12.0911800   145.3336000   -11.7877800   -72.0170500   -18.1293300   -37.3363000   -2.2780160    -14.8492900   
17850000000   -12.5602300   136.7351000   -11.8260500   -75.0114500   -18.2067900   -40.4032900   -2.2643060    -16.3146200   
17875000000   -12.8950800   127.6298000   -11.8734900   -77.8806400   -18.3068000   -43.4503300   -2.2573130    -17.7957000   
17900000000   -13.1404100   118.7343000   -11.9191800   -80.7094100   -18.4008400   -46.2817500   -2.2508140    -19.1539500   
17925000000   -13.3581200   109.7559000   -11.9379700   -83.5051000   -18.4911100   -49.1016600   -2.2456050    -20.6378500   
17950000000   -13.5237200   100.2863000   -11.9707200   -86.2571100   -18.5976000   -51.7874400   -2.2402270    -22.1315100   
17975000000   -13.4840500   90.4284600    -11.9705400   -88.9147900   -18.6943200   -54.3664600   -2.2111110    -23.4642500   
18000000000   -13.2906400   81.5305800    -11.9687700   -91.7951900   -18.7861500   -56.9234500   -2.2008400    -24.7397100   
18025000000   -13.0881000   73.6169400    -11.9453900   -94.4936700   -18.8670200   -59.3234600   -2.2057250    -25.8716200   
18050000000   -12.8925000   65.8337200    -11.8995900   -97.4663200   -18.9169400   -61.7661200   -2.1999720    -27.2152600   
18075000000   -12.6232900   57.8901600    -11.8818700   -100.7035000  -18.9788300   -64.3732000   -2.1827440    -28.6485700   
18100000000   -12.2411000   50.5062000    -11.8698100   -103.8922000  -19.0373000   -66.8474700   -2.1453640    -29.7349500   
18125000000   -11.8800800   44.0490400    -11.8800400   -107.2679000  -19.0946600   -69.4161300   -2.1194480    -30.7057800   
18150000000   -11.5874700   38.0141300    -11.9092200   -110.6398000  -19.1646200   -72.0302400   -2.1173460    -31.9420200   
18175000000   -11.3463300   32.0756000    -11.9576300   -113.8932000  -19.2506900   -74.5465200   -2.1020150    -33.3650700   
18200000000   -11.1185300   26.3285200    -11.9973200   -116.8510000  -19.3413500   -76.8004400   -2.0495700    -34.7520800   
18225000000   -10.8950200   21.4836200    -12.0243900   -119.6998000  -19.4065400   -78.8842500   -2.0003040    -35.9344500   
18250000000   -10.7222400   17.7383800    -12.0067600   -122.5685000  -19.4190100   -80.8252600   -1.9689420    -36.9446900   
18275000000   -10.5767300   14.7685900    -11.9312400   -125.6422000  -19.3685300   -82.9518000   -1.9501940    -38.1761100   
18300000000   -10.3598600   12.0880400    -11.8453200   -129.1849000  -19.2813700   -85.4514300   -1.9157390    -39.5392300   
18325000000   -10.0226600   9.5729500     -11.7963200   -133.0180000  -19.2000600   -88.4029800   -1.8603910    -40.8381300   
18350000000   -9.5938450    7.1602870     -11.7830100   -137.0940000  -19.1523100   -91.6812500   -1.8102260    -42.0438500   
18375000000   -9.1579250    4.4622180     -11.8260700   -141.3070000  -19.1484800   -95.1657300   -1.7739250    -43.3375600   
18400000000   -8.7755500    1.5045910     -11.9019500   -145.5147000  -19.1944500   -98.7997400   -1.7387350    -44.8768300   
18425000000   -8.4087490    -1.8876310    -12.0228200   -149.6175000  -19.2858900   -102.3287000  -1.6941460    -46.4224200   
18450000000   -8.0769120    -5.4592610    -12.1806600   -153.6282000  -19.4175500   -105.7585000  -1.6621790    -47.7859700   
18475000000   -7.7569820    -8.9600430    -12.3615800   -157.3840000  -19.5653900   -108.9832000  -1.6466550    -49.0344300   
18500000000   -7.4780580    -12.3095900   -12.5259600   -160.9543000  -19.7278100   -112.0828000  -1.6504320    -50.4248800   
18525000000   -7.2409810    -15.5866300   -12.6844100   -164.4836000  -19.8897100   -115.1475000  -1.6404710    -52.0195600   
18550000000   -7.0340610    -18.8575500   -12.8635900   -168.0425000  -20.0716200   -118.1643000  -1.6232630    -53.6146200   
18575000000   -6.8379790    -22.0531500   -13.0511200   -171.2387000  -20.2665800   -120.9059000  -1.6119860    -54.9134900   
18600000000   -6.6604340    -25.1739700   -13.2287200   -174.6393000  -20.4490200   -123.6607000  -1.6091120    -56.2234100   
18625000000   -6.5128970    -28.0444900   -13.3838600   -177.8892000  -20.6426500   -126.3990000  -1.6166510    -57.7281000   
18650000000   -6.3896820    -30.9065300   -13.5722800   178.8172000   -20.8391600   -129.0507000  -1.6146710    -59.3039200   
18675000000   -6.2960590    -33.8478000   -13.7297300   175.6083000   -21.0409700   -131.6392000  -1.5955850    -60.7670500   
18700000000   -6.2068720    -36.8625100   -13.8963900   172.4855000   -21.2555800   -134.1740000  -1.5784950    -62.0924100   
18725000000   -6.1121550    -39.8062100   -14.0627300   169.2714000   -21.4761000   -136.5651000  -1.5731510    -63.3313500   
18750000000   -6.0243900    -42.5324900   -14.2149000   166.2051000   -21.6929000   -139.0064000  -1.5593780    -64.7468900   
18775000000   -5.9724290    -45.1709500   -14.3980300   162.7759000   -21.9363100   -141.4268000  -1.5571380    -66.3213900   
18800000000   -5.9468430    -47.7836100   -14.5718700   159.7084000   -22.1968100   -143.5927000  -1.5473860    -67.6300000   
18825000000   -5.9225140    -50.5928600   -14.7233500   156.4009000   -22.4499100   -145.7546000  -1.5315210    -68.9654900   
18850000000   -5.9007470    -53.2882900   -14.9102600   153.0805000   -22.7281900   -147.8880000  -1.5363640    -70.4288600   
18875000000   -5.8945040    -55.8100900   -15.0945700   149.7164000   -23.0280700   -149.7667000  -1.5363500    -71.9004900   
18900000000   -5.9299510    -58.2633300   -15.2984100   146.4131000   -23.3362100   -151.4738000  -1.5235180    -73.3444900   
18925000000   -5.9892610    -60.9663600   -15.5058700   142.9927000   -23.6619200   -152.9700000  -1.5086740    -74.6178400   
18950000000   -6.0491140    -63.7477100   -15.7225000   139.4666000   -24.0064700   -154.2477000  -1.5093020    -75.9114600   
18975000000   -6.0854330    -66.2867800   -15.9361200   136.0060000   -24.3630100   -155.2416000  -1.5339360    -77.4194300   
19000000000   -6.1676170    -68.4927800   -16.2105200   132.3965000   -24.7447000   -155.7248000  -1.5518910    -78.9766100   
19025000000   -6.3147210    -70.5507800   -16.4847900   128.8131000   -25.1139800   -155.6543000  -1.5396000    -80.4268000   
19050000000   -6.5113230    -72.9155500   -16.7877100   125.2796000   -25.4562600   -155.0523000  -1.5329040    -81.6530500   
19075000000   -6.7182040    -75.5376700   -17.1393100   121.6870000   -25.7588700   -153.8780000  -1.5574330    -82.8890200   
19100000000   -6.9098920    -77.8489100   -17.5621500   117.9808000   -26.0004300   -152.0056000  -1.6123000    -84.4098700   
19125000000   -7.1055070    -79.7277800   -18.0052700   114.5804000   -26.1274600   -149.4189000  -1.6574600    -86.1163300   
19150000000   -7.3781700    -81.0538900   -18.5412300   111.1719000   -26.0951300   -146.3773000  -1.6778130    -87.7465300   
19175000000   -7.7089320    -82.0665200   -19.1608300   108.0932000   -25.8606900   -143.1577000  -1.7049160    -89.0942200   
19200000000   -8.0753920    -82.7442000   -19.8387400   105.4084000   -25.4273300   -140.3484000  -1.7601940    -90.5118800   
19225000000   -8.4498800    -82.9578100   -20.6099800   103.6199000   -24.8174500   -138.3089000  -1.8301750    -92.0791500   
19250000000   -8.8274250    -82.3685200   -21.4790300   102.8775000   -24.0920400   -137.3810000  -1.8733270    -93.7102100   
19275000000   -9.1724780    -81.1110700   -22.3868200   103.4861000   -23.3120300   -137.4757000  -1.9070490    -94.9817900   
19300000000   -9.4628500    -79.4538600   -23.2835700   106.5212000   -22.5030400   -138.7332000  -1.9498680    -95.8664900   
19325000000   -9.6128230    -77.5025300   -23.9100700   110.9734000   -21.7263100   -141.0627000  -2.0363610    -96.7856700   
19350000000   -9.5676760    -75.5387500   -24.2548700   117.2508000   -21.0098200   -144.1648000  -2.1391930    -97.8953500   
19375000000   -9.3331660    -73.4231200   -24.0881300   123.2469000   -20.3620500   -148.0719000  -2.2073730    -99.2850000   
19400000000   -9.0080210    -71.5834700   -23.5640900   128.2419000   -19.8153800   -152.4124000  -2.2549230    -100.6078000  
19425000000   -8.6315550    -70.2989300   -22.8419600   131.1535000   -19.3650300   -156.8549000  -2.2876020    -101.6219000  
19450000000   -8.2461400    -69.7380600   -22.0501600   131.9417000   -18.9667900   -161.4863000  -2.3172590    -102.5246000  
19475000000   -7.8624500    -70.0163300   -21.3097400   131.3116000   -18.6513900   -166.1655000  -2.3586610    -103.4775000  
19500000000   -7.5060830    -70.9556400   -20.5973100   129.6181000   -18.3891600   -170.7997000  -2.3876170    -104.5243000  
19525000000   -7.1530580    -72.3334700   -20.0519400   126.9934000   -18.1712400   -175.4363000  -2.4043090    -105.6768000  
19550000000   -6.8467810    -73.9619000   -19.5598400   124.0162000   -18.0067600   -179.8599000  -2.4196850    -106.6863000  
19575000000   -6.5808920    -75.8826100   -19.1666800   120.9483000   -17.8573100   175.9584000   -2.4346920    -107.5316000  
19600000000   -6.3547990    -78.0874300   -18.8337000   117.5668000   -17.7181600   171.9377000   -2.4667630    -108.3421000  
19625000000   -6.1796090    -80.5066800   -18.5576100   114.3377000   -17.5691800   168.0306000   -2.4938600    -109.2881000  
19650000000   -6.0591750    -82.9856300   -18.3571900   111.1199000   -17.4178100   164.2080000   -2.5142100    -110.4727000  
19675000000   -6.0091690    -85.5467500   -18.2164200   108.0489000   -17.2465000   160.4911000   -2.5282880    -111.5249000  
19700000000   -6.0643800    -88.1141900   -18.0699100   105.4780000   -17.0268000   156.6904000   -2.5289890    -112.3227000  
19725000000   -6.2195850    -90.4950000   -17.8871500   103.3299000   -16.7761900   152.6410000   -2.5386270    -113.0821000  
19750000000   -6.4193580    -92.2746800   -17.6473700   101.3681000   -16.5188800   148.0908000   -2.5666590    -114.0108000  
19775000000   -6.6339980    -93.1766100   -17.2757600   99.2120100    -16.2967500   143.0174000   -2.5833330    -115.0824000  
19800000000   -6.7747260    -93.1963000   -16.8888500   96.1803400    -16.1404300   137.6806000   -2.5803690    -116.2032000  
19825000000   -6.8601070    -92.9517400   -16.4782200   92.9666800    -16.0590600   132.3038000   -2.5930330    -117.1946000  
19850000000   -6.8637800    -92.8568600   -16.1209900   88.9537500    -16.0301100   126.9966000   -2.6062130    -118.1356000  
19875000000   -6.8228150    -92.8807900   -15.8435000   84.6985300    -16.0491700   121.8472000   -2.6160160    -119.2892000  
19900000000   -6.7251370    -93.0142000   -15.5787100   80.4278700    -16.0983800   116.8523000   -2.6133740    -120.4658000  
19925000000   -6.6074660    -93.1547700   -15.3547700   76.0964500    -16.1558200   112.0425000   -2.5894790    -121.5120000  
19950000000   -6.4987410    -93.4348600   -15.1677200   71.7015100    -16.2351600   107.3908000   -2.5641590    -122.5141000  
19975000000   -6.3849910    -93.9307300   -15.0060600   67.3310300    -16.3348100   102.8346000   -2.5560650    -123.5673000  
20000000000   -6.2491360    -94.7481800   -14.8702100   62.9351500    -16.4447700   98.4034000    -2.5472870    -124.6721000  
