!Mini-Circuits Laboratory
!S-Parameters
!Model: ZX60-33LNR-S+
!Run / Lot / Date Code: E181103 / N/A / N/A
!Fixture: N/A, Pressing Arm: N/A
!Network Analyzer: PNA-X N5242A - 423 4 ports;  Serial number: 74302
!Date: 11/9/2018 at 2:34:54 PM
!S/N: Unit# 2
!Volage and Current limited to 5V and 150mA
# Hz  S  dB  R  50
!Frequency    S11 dB        S11 Deg       S21 dB        S21 Deg       S12 dB        S12 Deg       S22 dB        S22 Deg       
10000000      -7.1041240    -8.3090370    24.7732000    -167.1111000  -39.7240500   80.6878800    -16.5040400   44.7615900    
15000000      -7.3259220    -10.4374600   24.8507700    -173.1715000  -36.9042700   65.4153800    -19.5881600   -2.9500260    
20000000      -7.6006260    -11.7560500   24.8461300    -177.2204000  -35.3578400   54.4350700    -21.1628600   -39.0543900   
25000000      -7.7888240    -13.0183900   24.8176400    -179.8709000  -34.4295600   46.3908900    -21.4486200   -68.1181900   
30000000      -7.8586590    -14.1858800   24.7847000    178.3435000   -33.8419600   40.4313900    -21.1290100   -87.7163300   
35000000      -7.9044070    -15.3062000   24.7582200    176.7668000   -33.4319800   35.8414000    -20.8745800   -101.9022000  
40000000      -7.9512470    -16.6045700   24.7407500    175.3038000   -33.1496600   32.0263200    -20.6493100   -113.2117000  
45000000      -7.9639340    -17.9401800   24.7264800    173.9746000   -32.9314800   28.9510600    -20.4735000   -121.9110000  
50000000      -7.9786530    -18.8398400   24.7216300    172.6571000   -32.7469400   26.7329100    -20.4943800   -129.3467000  
55000000      -7.9648600    -20.7474700   24.7085900    171.5644000   -32.6357300   24.3148900    -20.2180700   -134.7152000  
60000000      -7.9533960    -22.3006200   24.6989300    170.4166000   -32.5352200   22.4892900    -20.1391200   -139.6184000  
65000000      -7.9492930    -23.8245200   24.6894800    169.2909000   -32.4486100   20.9272700    -20.0679400   -143.9283000  
70000000      -7.9414200    -25.3823100   24.6781300    168.1789000   -32.3737200   19.5622300    -20.0174400   -147.7602000  
75000000      -7.9397500    -26.9929900   24.6658700    167.0939000   -32.3169200   18.3749000    -19.9538000   -151.1557000  
80000000      -7.9273130    -28.5522000   24.6542800    166.0199000   -32.2625100   17.3516100    -19.9324500   -154.1383000  
85000000      -7.9103980    -30.1677100   24.6427900    164.9514000   -32.2178500   16.3942000    -19.9215200   -156.7991000  
90000000      -7.8998790    -31.7732500   24.6297900    163.9030000   -32.1745800   15.5991200    -19.9039400   -159.1691000  
95000000      -7.8869350    -33.3438900   24.6168000    162.8648000   -32.1365200   14.8185600    -19.8992700   -161.4650000  
100000000     -7.8762400    -34.9721500   24.6040500    161.8250000   -32.1026600   14.1382100    -19.8894800   -163.4834000  
105000000     -7.8665670    -36.5369600   24.5865700    160.8033000   -32.0660400   13.5360100    -19.8977900   -165.5096000  
110000000     -7.8460690    -38.1298800   24.5734800    159.7961000   -32.0386400   12.9641200    -19.8999000   -167.1017000  
115000000     -7.8378740    -39.6949800   24.5543900    158.7863000   -32.0070300   12.4333200    -19.9029900   -168.9747000  
120000000     -7.8260790    -41.2937700   24.5352200    157.7811000   -31.9799100   11.9631500    -19.9100600   -170.5913000  
125000000     -7.8079940    -42.8264700   24.5179000    156.8028000   -31.9525400   11.5038000    -19.9265200   -172.1462000  
130000000     -7.7941580    -44.3361600   24.4996400    155.8119000   -31.9274500   11.0702800    -19.9355700   -173.6579000  
135000000     -7.7881430    -45.9439300   24.4781800    154.8328000   -31.9030800   10.7174400    -19.9598800   -175.0362000  
140000000     -7.7642810    -47.4805700   24.4600400    153.8698000   -31.8777200   10.3105000    -19.9675700   -176.2278000  
145000000     -7.7567480    -49.0500100   24.4406900    152.9040000   -31.8501700   10.0110700    -19.9885400   -177.6242000  
150000000     -7.7362730    -50.5528500   24.4195700    151.9384000   -31.8271200   9.7021210     -20.0124100   -178.8493000  
155000000     -7.7215870    -52.0944000   24.3969500    150.9796000   -31.7996300   9.4106660     -20.0333400   179.9609000   
160000000     -7.7092760    -53.6061900   24.3741800    150.0157000   -31.7768400   9.1296680     -20.0438600   178.7795000   
165000000     -7.6941050    -55.0874300   24.3509600    149.0712000   -31.7525500   8.8791010     -20.0721100   177.6497000   
170000000     -7.6773540    -56.5610500   24.3267300    148.1261000   -31.7283100   8.5924970     -20.1052500   176.4916000   
175000000     -7.6580470    -58.0360300   24.3038000    147.1895000   -31.7020200   8.3556110     -20.1407600   175.4974000   
180000000     -7.6482740    -59.5036000   24.2779100    146.2582000   -31.6773100   8.1220970     -20.1677600   174.5005000   
185000000     -7.6262180    -60.9554700   24.2542300    145.3192000   -31.6533000   7.9059330     -20.1931600   173.5394000   
190000000     -7.6165190    -62.4006300   24.2277000    144.3928000   -31.6272700   7.6762170     -20.2260800   172.5456000   
195000000     -7.5951480    -63.8328400   24.2022300    143.4692000   -31.6028000   7.4791060     -20.2636400   171.5995000   
200000000     -7.5829980    -65.2743700   24.1748100    142.5577000   -31.5754200   7.2569050     -20.2787000   170.7044000   
205000000     -7.5679340    -66.6516300   24.1478700    141.6454000   -31.5498000   7.0701780     -20.3262100   169.8314000   
210000000     -7.5510850    -68.0722100   24.1203200    140.7248000   -31.5240600   6.8737580     -20.3589400   168.9787000   
215000000     -7.5300840    -69.4566100   24.0943900    139.8245000   -31.4967900   6.6906920     -20.3997700   168.1969000   
220000000     -7.5189780    -70.8159200   24.0659100    138.9276000   -31.4725900   6.5009500     -20.4431500   167.3391000   
225000000     -7.5008260    -72.2001200   24.0372200    138.0103000   -31.4450100   6.3367510     -20.4677500   166.5255000   
230000000     -7.4832170    -73.5305600   24.0098100    137.1352000   -31.4179500   6.1375410     -20.5191000   165.7028000   
235000000     -7.4648830    -74.9613600   23.9815000    136.2326000   -31.3903400   5.9709030     -20.5468900   164.9665000   
240000000     -7.4497420    -76.2862200   23.9515200    135.3460000   -31.3621100   5.7962710     -20.5830000   164.1645000   
245000000     -7.4322300    -77.6346500   23.9225600    134.4552000   -31.3354600   5.6281970     -20.6137000   163.3537000   
250000000     -7.4177240    -79.0333900   23.8914000    133.5647000   -31.3025900   5.4558660     -20.6555600   162.6284000   
255000000     -7.4030630    -80.2604200   23.8619800    132.6995000   -31.2771400   5.2801710     -20.7100000   161.7969000   
260000000     -7.3766190    -81.5282600   23.8330000    131.8118000   -31.2479700   5.1102940     -20.7514600   161.0445000   
265000000     -7.3574740    -82.8946200   23.8036200    130.9383000   -31.2192600   4.9497080     -20.7936000   160.3415000   
270000000     -7.3456240    -84.1554300   23.7719500    130.0762000   -31.1911400   4.7806220     -20.8398600   159.5526000   
275000000     -7.3323860    -85.4413400   23.7406200    129.2109000   -31.1624300   4.6040580     -20.8786800   158.8686000   
280000000     -7.3117310    -86.6924400   23.7075000    128.3517000   -31.1310100   4.4555030     -20.9317400   158.1555000   
285000000     -7.2972500    -87.9593000   23.6748900    127.4967000   -31.1014300   4.2788420     -20.9802900   157.4431000   
290000000     -7.2761040    -89.2183400   23.6437800    126.6384000   -31.0736300   4.1277300     -21.0176400   156.8147000   
295000000     -7.2588320    -90.4415200   23.6115600    125.7900000   -31.0418800   3.9530100     -21.0673400   156.1275000   
300000000     -7.2396890    -91.6709200   23.5811800    124.9462000   -31.0090500   3.7979040     -21.1205600   155.5795000   
305000000     -7.2287430    -92.8584200   23.5469000    124.1004000   -30.9800100   3.6233970     -21.1747000   154.8653000   
310000000     -7.2058080    -94.0461600   23.5162400    123.2653000   -30.9484100   3.4767230     -21.2282800   154.3279000   
315000000     -7.1929460    -95.2260000   23.4819000    122.4321000   -30.9196100   3.2884860     -21.2757600   153.6902000   
320000000     -7.1774760    -96.3987400   23.4492400    121.6064000   -30.8881700   3.1272200     -21.3264000   153.0808000   
325000000     -7.1592870    -97.5768500   23.4163200    120.7711000   -30.8567500   2.9639160     -21.3724800   152.4979000   
330000000     -7.1430450    -98.7556500   23.3821500    119.9268000   -30.8270000   2.7852220     -21.4252100   151.9111000   
335000000     -7.1282400    -99.9204900   23.3481600    119.1087000   -30.7934700   2.6177340     -21.4760500   151.3775000   
340000000     -7.1139280    -101.0487000  23.3140400    118.2885000   -30.7633300   2.4478880     -21.5360300   150.7732000   
345000000     -7.0960800    -102.1703000  23.2816600    117.4679000   -30.7313800   2.2835120     -21.6064000   150.2522000   
350000000     -7.0830360    -103.3486000  23.2471400    116.6304000   -30.7022000   2.0788740     -21.6335300   149.7158000   
355000000     -7.0672210    -104.4333000  23.2115500    115.8311000   -30.6663200   1.9305660     -21.7059000   149.1543000   
360000000     -7.0486720    -105.5500000  23.1776400    115.0262000   -30.6355700   1.7532550     -21.7647000   148.6439000   
365000000     -7.0417890    -106.6810000  23.1425100    114.2230000   -30.6035700   1.5603770     -21.8161800   148.0437000   
370000000     -7.0301130    -107.7928000  23.1067900    113.4126000   -30.5726000   1.3957910     -21.8682700   147.4906000   
375000000     -7.0185610    -108.8402000  23.0720800    112.6108000   -30.5397500   1.2171790     -21.9220700   146.9426000   
380000000     -6.9950320    -109.9082000  23.0378000    111.8086000   -30.5066100   1.0300050     -21.9796800   146.4272000   
385000000     -6.9830940    -110.9684000  23.0022200    111.0159000   -30.4742200   0.8395772     -22.0378500   145.8065000   
390000000     -6.9653850    -112.0164000  22.9682600    110.2105000   -30.4428300   0.6617208     -22.0967500   145.2952000   
395000000     -6.9556150    -113.0665000  22.9318900    109.4228000   -30.4119500   0.4757930     -22.1525900   144.6935000   
400000000     -6.9420100    -114.1336000  22.8968900    108.6236000   -30.3788900   0.2896305     -22.2145700   144.2254000   
405000000     -6.9293480    -115.1322000  22.8609500    107.8467000   -30.3457600   0.1132441     -22.2805700   143.6265000   
410000000     -6.9155480    -116.1820000  22.8239600    107.0574000   -30.3130000   -0.0911741    -22.3254000   143.1657000   
415000000     -6.9022770    -117.1999000  22.7870000    106.2858000   -30.2796300   -0.2667759    -22.3967500   142.5827000   
420000000     -6.8932600    -118.1909000  22.7515600    105.5020000   -30.2475200   -0.4629652    -22.4661800   142.0414000   
425000000     -6.8795350    -119.1826000  22.7168400    104.7279000   -30.2136900   -0.6670231    -22.5329700   141.6299000   
430000000     -6.8705100    -120.1547000  22.6819800    103.9564000   -30.1815800   -0.8604904    -22.6120600   141.1438000   
435000000     -6.8597490    -121.1304000  22.6453400    103.1857000   -30.1498100   -1.0506650    -22.6766600   140.6620000   
440000000     -6.8479820    -122.0924000  22.6079500    102.4258000   -30.1171700   -1.2536650    -22.7498200   140.2101000   
445000000     -6.8394100    -123.0630000  22.5715100    101.6579000   -30.0842700   -1.4572480    -22.8150900   139.7694000   
450000000     -6.8287580    -124.0403000  22.5336600    100.8985000   -30.0499800   -1.6715400    -22.8883100   139.3178000   
455000000     -6.8167510    -124.9955000  22.4971500    100.1385000   -30.0193700   -1.8504690    -22.9568300   138.8950000   
460000000     -6.8114790    -125.9063000  22.4595400    99.3823500    -29.9868500   -2.0652320    -23.0267300   138.4067000   
465000000     -6.8028410    -126.8741000  22.4222900    98.6277800    -29.9544200   -2.2707340    -23.1037300   138.0147000   
470000000     -6.7974570    -127.7844000  22.3866800    97.8793900    -29.9220800   -2.4819870    -23.1777000   137.5988000   
475000000     -6.7870920    -128.7209000  22.3502500    97.1263400    -29.8874100   -2.6921050    -23.2616900   137.2276000   
480000000     -6.7787610    -129.6295000  22.3124500    96.3784100    -29.8555800   -2.8938420    -23.3404600   136.7645000   
485000000     -6.7652970    -130.5447000  22.2754000    95.6346000    -29.8223000   -3.1129220    -23.4203900   136.3916000   
490000000     -6.7610500    -131.4612000  22.2374800    94.8966400    -29.7904800   -3.3258750    -23.4891800   135.8982000   
495000000     -6.7474750    -132.3768000  22.1996300    94.1560400    -29.7575200   -3.5366270    -23.5737800   135.5719000   
500000000     -6.7434500    -133.2658000  22.1629100    93.4269000    -29.7259600   -3.7622540    -23.6576300   135.1629000   
525000000     -6.6949200    -137.5754000  21.9762500    89.7852600    -29.5665800   -4.8428910    -24.0853700   133.3680000   
550000000     -6.6689760    -141.7639000  21.7919200    86.2066400    -29.4071800   -5.9832420    -24.5043200   131.5909000   
575000000     -6.6324910    -145.8792000  21.6035900    82.7025100    -29.2406800   -7.1634230    -25.0138900   130.3166000   
600000000     -6.6104280    -149.6538000  21.4242200    79.2338200    -29.0767000   -8.3363400    -25.4881600   128.9434000   
625000000     -6.5778730    -153.5069000  21.2397000    75.8011600    -28.9141400   -9.5474560    -25.9953300   127.7463000   
650000000     -6.5625620    -157.2267000  21.0590400    72.4107000    -28.7487000   -10.8234800   -26.4811800   126.7829000   
675000000     -6.5390750    -160.9078000  20.8778000    69.0470400    -28.5857700   -12.1550100   -27.0076800   126.0656000   
700000000     -6.5076830    -164.6557000  20.6903800    65.6967100    -28.4312000   -13.5677200   -27.5607700   125.0606000   
725000000     -6.5407180    -168.4933000  20.4838600    62.4445600    -28.3042400   -15.0279400   -28.4249000   123.3209000   
750000000     -6.6961770    -171.2355000  20.3111700    59.7558200    -28.1656000   -15.9448500   -29.6630200   127.9415000   
775000000     -6.6222180    -173.9760000  20.1837600    56.4791900    -27.9653000   -17.3802900   -29.8884500   130.5101000   
800000000     -6.5844480    -177.2076000  20.0207000    53.2209400    -27.8023500   -18.8799200   -30.4223200   131.9227000   
825000000     -6.5857650    179.7331000   19.8553500    50.0432500    -27.6454400   -20.3658100   -31.0286900   134.0195000   
850000000     -6.5847900    176.6916000   19.6886900    46.9260200    -27.4923200   -21.8910700   -31.6861100   136.9321000   
875000000     -6.5842300    173.6807000   19.5202500    43.8537000    -27.3374500   -23.4347700   -32.2426000   140.6488000   
900000000     -6.6060390    170.7809000   19.3589900    40.8203200    -27.1931600   -25.0029500   -32.8608200   146.4663000   
925000000     -6.6138260    167.9649000   19.1986000    37.7886000    -27.0509800   -26.5710300   -33.3202100   152.4602000   
950000000     -6.6373540    165.1201000   19.0381200    34.7963400    -26.9088100   -28.1650700   -33.6075800   160.0491000   
975000000     -6.6462470    162.3860000   18.8777500    31.8112100    -26.7660300   -29.7806500   -33.5203200   167.3905000   
1000000000    -6.6667070    159.6386000   18.7200500    28.8549500    -26.6283000   -31.4301000   -33.2969800   174.6956000   
1025000000    -6.6974520    156.9788000   18.5634200    25.9129600    -26.4972800   -33.0662100   -32.9300200   -178.2578000  
1050000000    -6.7096740    154.3478000   18.4060300    22.9892300    -26.3638600   -34.7575700   -32.3593500   -171.6896000  
1075000000    -6.7198160    151.6947000   18.2465400    20.0733600    -26.2379500   -36.4584300   -31.5429500   -165.4210000  
1100000000    -6.7367380    149.0432000   18.0835400    17.1617900    -26.1214400   -38.1637100   -30.4778800   -160.1888000  
1125000000    -6.7435440    146.2259000   17.9059800    14.3274100    -26.0207100   -39.8560700   -29.1408000   -155.7413000  
1150000000    -6.7678840    143.1905000   17.7111400    11.6539600    -25.9402900   -41.3869300   -27.4326900   -154.3222000  
1175000000    -6.8753090    140.0416000   17.5346800    9.4637280     -25.8362000   -42.4493400   -25.7764500   -159.5823000  
1200000000    -7.0724750    137.5329000   17.4665200    7.2625480     -25.6263600   -43.6280800   -25.3007000   -168.6199000  
1225000000    -7.1900660    135.7563000   17.4118900    4.4800190     -25.4159200   -45.4412900   -25.5556400   -172.7417000  
1250000000    -7.2438330    133.7399000   17.3181300    1.5304500     -25.2504000   -47.4260300   -25.6691400   -172.8490000  
1275000000    -7.2883520    131.6315000   17.2053700    -1.3852400    -25.1091200   -49.3662700   -25.5449600   -172.3953000  
1300000000    -7.3278720    129.4892000   17.0837300    -4.2437530    -24.9708800   -51.2880600   -25.2744900   -171.8834000  
1325000000    -7.3884760    127.2666000   16.9598200    -7.0639510    -24.8462100   -53.2056500   -24.9058100   -171.5741000  
1350000000    -7.4393420    125.0561000   16.8378600    -9.8586830    -24.7216200   -55.1182900   -24.4429500   -171.4860000  
1375000000    -7.4957970    122.8385000   16.7109400    -12.6404600   -24.6015900   -56.9981900   -24.0268300   -172.1165000  
1400000000    -7.5413800    120.6439000   16.5846900    -15.3906700   -24.4836100   -58.8782000   -23.6533100   -172.7065000  
1425000000    -7.5914680    118.5563000   16.4608900    -18.0991700   -24.3615100   -60.7368100   -23.2493000   -173.4570000  
1450000000    -7.6581230    116.4246000   16.3403000    -20.7921400   -24.2513800   -62.6185600   -22.8616700   -174.3854000  
1475000000    -7.7237520    114.1832000   16.2186400    -23.4854500   -24.1336400   -64.5198900   -22.5008200   -175.4635000  
1500000000    -7.7874340    112.1021000   16.1012200    -26.1573800   -24.0173500   -66.4508100   -22.1458100   -176.7139000  
1525000000    -7.8540500    109.8231000   15.9851400    -28.8345000   -23.9032000   -68.3754400   -21.8063800   -178.0072000  
1550000000    -7.9206490    107.7758000   15.8682800    -31.4843700   -23.7922700   -70.2726100   -21.5107700   -179.2919000  
1575000000    -7.9892060    105.6874000   15.7572100    -34.1343200   -23.6818400   -72.2013100   -21.1929600   179.2833000   
1600000000    -8.0618720    103.5595000   15.6495500    -36.7872500   -23.5702200   -74.1492000   -20.8452200   177.8053000   
1625000000    -8.1373830    101.3809000   15.5372400    -39.4242300   -23.4616300   -76.0920600   -20.5536000   176.2810000   
1650000000    -8.2009730    99.3297500    15.4307400    -42.0254900   -23.3551000   -78.0304000   -20.2777900   174.7434000   
1675000000    -8.2796520    97.1654000    15.3221600    -44.6582400   -23.2475600   -80.0319200   -20.0051700   173.1156000   
1700000000    -8.3734220    95.0888400    15.2157600    -47.2971100   -23.1477000   -82.0148900   -19.7309600   171.3843000   
1725000000    -8.4494120    92.9530800    15.1079200    -49.9032600   -23.0470400   -83.9847300   -19.4711100   169.8601000   
1750000000    -8.5400390    90.8404400    15.0054200    -52.4659100   -22.9449200   -85.9608200   -19.1991600   168.2439000   
1775000000    -8.6211960    88.7064700    14.9038300    -55.0581900   -22.8458200   -87.9518400   -18.9409300   166.5427000   
1800000000    -8.7232240    86.6727000    14.8036000    -57.6383300   -22.7498700   -89.9045600   -18.6776800   164.3714000   
1825000000    -8.8139820    84.6737100    14.7072200    -60.2083900   -22.6436700   -91.8810800   -18.4656400   162.4616000   
1850000000    -8.9142380    82.5666000    14.6089700    -62.8179000   -22.5461300   -93.9068300   -18.2508100   160.6100000   
1875000000    -9.0011800    80.6181400    14.5138000    -65.3880100   -22.4465800   -95.9160200   -18.0517900   158.6835000   
1900000000    -9.0929670    78.5089600    14.4187100    -67.9851900   -22.3475700   -97.9549300   -17.8849800   156.5940000   
1925000000    -9.1817050    76.5123400    14.3259000    -70.5745500   -22.2506900   -99.9940400   -17.6838800   154.6920000   
1950000000    -9.2731620    74.3211200    14.2326500    -73.1126200   -22.1599500   -102.0621000  -17.4928600   152.6854000   
1975000000    -9.3922160    72.2856800    14.1362700    -75.7201200   -22.0655800   -104.0886000  -17.3297400   150.6990000   
2000000000    -9.4945000    70.0931500    14.0448900    -78.2938400   -21.9739800   -106.1778000  -17.1524800   148.7647000   
2025000000    -9.5987970    68.0766200    13.9532200    -80.8582300   -21.8866300   -108.2403000  -17.0012100   146.6498000   
2050000000    -9.6931820    65.9182900    13.8603500    -83.4131300   -21.7946700   -110.3131000  -16.8507300   144.5049000   
2075000000    -9.8001650    63.9404800    13.7676700    -85.9821400   -21.7092200   -112.3890000  -16.7022500   142.4559000   
2100000000    -9.8984840    61.7790900    13.6780000    -88.5262800   -21.6238500   -114.4657000  -16.5709700   140.4591000   
2125000000    -10.0105600   59.5754600    13.5866300    -91.0706900   -21.5359300   -116.5656000  -16.4379500   138.5169000   
2150000000    -10.1204600   57.5131500    13.4970200    -93.6504200   -21.4524700   -118.6548000  -16.3003300   136.3035000   
2175000000    -10.2314900   55.3045800    13.4043300    -96.1940600   -21.3737000   -120.7531000  -16.1931000   134.1417000   
2200000000    -10.3379200   53.1321100    13.3172300    -98.7021900   -21.2914100   -122.8668000  -16.0803700   132.1997000   
2225000000    -10.4464700   50.9659200    13.2277100    -101.2513000  -21.2176300   -125.0161000  -15.9166700   129.9670000   
2250000000    -10.5424400   48.6148600    13.1306300    -103.7542000  -21.1489400   -127.1028000  -15.8120600   127.6038000   
2275000000    -10.6397100   46.2488400    13.0363700    -106.2224000  -21.0715000   -129.1404000  -15.7405700   125.4132000   
2300000000    -10.7402300   43.7852900    12.9475400    -108.6726000  -21.0034700   -131.2548000  -15.6201800   122.9978000   
2325000000    -10.8381300   41.2038500    12.8581800    -111.0205000  -20.9351700   -133.2485000  -15.5647100   120.4202000   
2350000000    -10.9790400   38.3601200    12.7829800    -113.3396000  -20.8574400   -135.2270000  -15.5590600   118.1952000   
2375000000    -11.1530600   35.6948400    12.7247200    -115.7433000  -20.7715900   -137.2633000  -15.5337300   115.8538000   
2400000000    -11.3513400   32.9587900    12.6669000    -118.2202000  -20.6820500   -139.3217000  -15.5211200   113.5192000   
2425000000    -11.5519300   30.3293200    12.6115900    -120.7108000  -20.5917500   -141.3900000  -15.5423500   111.5865000   
2450000000    -11.7450200   27.7045100    12.5558600    -123.2744000  -20.5048000   -143.5499000  -15.5223300   109.7031000   
2475000000    -11.9153300   25.2199400    12.4891900    -125.8396000  -20.4189400   -145.7073000  -15.4919500   107.6392000   
2500000000    -12.0641500   22.7348900    12.4219900    -128.3825000  -20.3369500   -147.8392000  -15.4897300   105.7215000   
2525000000    -12.2548600   20.1094100    12.3548800    -130.9255000  -20.2577200   -150.0437000  -15.4810100   103.6940000   
2550000000    -12.4525800   17.4482400    12.2874300    -133.4966000  -20.1842800   -152.2366000  -15.4735000   101.5202000   
2575000000    -12.6201100   14.5249400    12.2179900    -136.0118000  -20.1066300   -154.4013000  -15.4685300   99.4497300    
2600000000    -12.8010300   11.6971100    12.1497200    -138.5465000  -20.0307900   -156.5693000  -15.4558600   97.5316200    
2625000000    -12.9732900   8.7378080     12.0780300    -141.0420000  -19.9590400   -158.7206000  -15.4988000   95.5071300    
2650000000    -13.1476900   5.6934320     12.0196600    -143.5349000  -19.8824700   -160.9002000  -15.5250700   93.6875200    
2675000000    -13.3666100   2.5940490     11.9579100    -146.1068000  -19.8097600   -163.1283000  -15.4875100   91.7085600    
2700000000    -13.5234200   -0.7229705    11.8894700    -148.5990000  -19.7490400   -165.2862000  -15.5401900   89.3797900    
2725000000    -13.7316200   -4.0885940    11.8332800    -151.1325000  -19.6679800   -167.4173000  -15.5797400   87.7751400    
2750000000    -13.9132100   -7.4360940    11.7719700    -153.6554000  -19.5970800   -169.6664000  -15.5881900   85.7213300    
2775000000    -14.0872500   -11.0402200   11.7121600    -156.1434000  -19.5217200   -171.8073000  -15.6840300   83.9666700    
2800000000    -14.3262000   -15.0281000   11.6659600    -158.7355000  -19.4350600   -174.0361000  -15.6849100   82.5427100    
2825000000    -14.5393300   -18.6056300   11.6055700    -161.3286000  -19.3637300   -176.3382000  -15.6720300   80.4272400    
2850000000    -14.7176600   -22.4194400   11.5423200    -163.8441000  -19.2978100   -178.5515000  -15.7222600   78.4319600    
2875000000    -14.9301900   -26.5318700   11.4917800    -166.4418000  -19.2208700   179.1733000   -15.7232700   76.8518100    
2900000000    -15.1255700   -30.7385500   11.4338700    -169.0688000  -19.1509300   176.8687000   -15.7171200   74.7467400    
2925000000    -15.3272200   -35.0972200   11.3731800    -171.6715000  -19.0811200   174.5682000   -15.7323000   72.7011900    
2950000000    -15.4927500   -39.3403700   11.3062800    -174.2783000  -19.0256700   172.2425000   -15.7384500   70.3927800    
2975000000    -15.6049600   -44.1240700   11.2458600    -176.7785000  -18.9659600   169.9922000   -15.8423000   67.9244300    
3000000000    -15.7971100   -48.9082000   11.1948000    -179.3972000  -18.8919300   167.7192000   -15.9157600   66.1974200    
3025000000    -15.9602900   -54.0153200   11.1405000    177.9756000   -18.8275100   165.3845000   -15.9467400   64.1667400    
3050000000    -16.1164400   -58.7530700   11.0755600    175.3636000   -18.7661800   163.0460000   -16.0074400   61.7790300    
3075000000    -16.2200600   -63.6731900   11.0131900    172.7348000   -18.7106200   160.7010000   -16.0876100   59.5468600    
3100000000    -16.2670300   -68.8195000   10.9532600    170.1450000   -18.6593900   158.3718000   -16.1795700   57.2623400    
3125000000    -16.3846400   -73.9614800   10.8916600    167.5149000   -18.6028200   156.0579000   -16.2681500   54.9738500    
3150000000    -16.4614000   -79.1525700   10.8322800    164.8351000   -18.5451400   153.6940000   -16.3500300   52.7515000    
3175000000    -16.4033900   -84.4078100   10.7639400    162.2176000   -18.4960200   151.3155000   -16.4439400   50.1852100    
3200000000    -16.3141600   -89.6302000   10.7017300    159.6215000   -18.4474800   149.0043000   -16.6039400   47.6410600    
3225000000    -16.2855400   -94.7063100   10.6398800    156.9828000   -18.3933400   146.6633000   -16.7583500   45.5531500    
3250000000    -16.2133800   -99.7451900   10.5715000    154.3393000   -18.3418400   144.2707000   -16.8814600   43.1918300    
3275000000    -16.0845800   -105.3739000  10.5105300    151.7080000   -18.2961300   141.8916000   -17.0458700   40.5521900    
3300000000    -15.9572100   -109.8860000  10.4402200    149.0518000   -18.2481000   139.5211000   -17.2344200   38.0186200    
3325000000    -15.8274900   -114.9084000  10.3672100    146.3897000   -18.2093300   137.1110000   -17.3920600   35.4494900    
3350000000    -15.6524000   -119.5663000  10.2982300    143.7495000   -18.1699600   134.7262000   -17.5553600   32.9036400    
3375000000    -15.4849200   -123.9952000  10.2207400    141.0720000   -18.1330500   132.2859000   -17.7339600   29.9879900    
3400000000    -15.3156800   -128.4933000  10.1395400    138.4245000   -18.1027700   129.8798000   -17.9763900   26.8727400    
3425000000    -15.0884100   -132.3301000  10.0536900    135.8170000   -18.0779600   127.4949000   -18.2411300   23.7110800    
3450000000    -14.8585200   -136.0923000  9.9637800     133.2461000   -18.0552500   125.1559000   -18.5404700   20.4616400    
3475000000    -14.6125800   -139.7206000  9.8803140     130.6898000   -18.0373500   122.8332000   -18.9345000   17.2842000    
3500000000    -14.3091600   -143.3222000  9.8007950     128.1668000   -18.0156000   120.5065000   -19.3192300   14.1642800    
3525000000    -13.9685700   -146.6730000  9.7188100     125.6938000   -17.9951400   118.2784000   -19.7981500   10.7708100    
3550000000    -13.5643400   -149.8279000  9.6522870     123.2706000   -17.9644500   116.0640000   -20.3040700   7.8429890     
3575000000    -13.2148400   -153.1901000  9.5936890     120.7855000   -17.9246400   113.8423000   -20.7818100   5.3070460     
3600000000    -12.8495100   -156.6778000  9.5329380     118.2466000   -17.8766000   111.5339000   -21.2739600   2.5422750     
3625000000    -12.4963500   -160.1402000  9.4791600     115.7098000   -17.8348000   109.2432000   -21.8472900   -0.2266573    
3650000000    -12.1082800   -163.8037000  9.4249900     113.1172000   -17.7874500   106.8790000   -22.4672200   -2.8673610    
3675000000    -11.8014500   -167.2769000  9.3581860     110.4601000   -17.7429700   104.4789000   -23.1078000   -5.8269680    
3700000000    -11.4598300   -170.6458000  9.2885970     107.8040000   -17.7093600   101.9906000   -23.7650700   -8.5669860    
3725000000    -11.1207200   -173.9256000  9.2112390     105.1183000   -17.6843300   99.5160900    -24.5072200   -10.9125000   
3750000000    -10.7466400   -177.3328000  9.1111840     102.4248000   -17.6773800   96.9511600    -25.2169700   -12.2545100   
3775000000    -10.3866300   178.9886000   8.9813440     99.9573700    -17.7116200   94.5576200    -25.5197900   -12.4967900   
3800000000    -10.1141400   174.6783000   8.8827630     98.0091400    -17.7455100   92.6867900    -25.1994500   -16.9979900   
3825000000    -10.0453400   170.9150000   8.8838130     95.8756700    -17.6738300   90.8707300    -25.3231300   -28.2805300   
3850000000    -9.8727060    168.3170000   8.8886170     93.2788900    -17.5838100   88.5971700    -26.1749700   -39.9154200   
3875000000    -9.6994430    165.8232000   8.8591500     90.5526800    -17.5148900   86.1706800    -27.2354800   -51.1924700   
3900000000    -9.4810110    163.2312000   8.8080970     87.7522600    -17.4673800   83.6528900    -28.1610400   -62.9044000   
3925000000    -9.2618760    160.4873000   8.7435670     85.0018300    -17.4334900   81.1238800    -28.8573800   -75.8782400   
3950000000    -9.0272980    157.8964000   8.6790140     82.3219200    -17.3994200   78.6368900    -29.3636600   -90.1294400   
3975000000    -8.8085750    155.3684000   8.6106430     79.6316200    -17.3755600   76.1342100    -29.4178300   -105.2153000  
4000000000    -8.5736310    152.7308000   8.5394890     76.9304000    -17.3537100   73.6780300    -29.0753800   -119.4878000  
4025000000    -8.3592470    150.1691000   8.4714530     74.2712200    -17.3334200   71.2000700    -28.4130000   -132.5641000  
4050000000    -8.1589000    147.6485000   8.3986280     71.5736900    -17.3141600   68.7112900    -27.5883000   -143.5749000  
4075000000    -7.9629920    145.0956000   8.3162430     68.9299900    -17.3008900   66.2761200    -26.6318100   -153.8266000  
4100000000    -7.7689960    142.6418000   8.2415860     66.2717800    -17.2882000   63.8160100    -25.6291800   -162.2600000  
4125000000    -7.5917070    140.1493000   8.1591310     63.6190800    -17.2777300   61.3278200    -24.6480100   -169.1233000  
4150000000    -7.3933090    137.5996000   8.0798220     60.9737500    -17.2755900   58.8622800    -23.7106400   -175.2511000  
4175000000    -7.2147950    135.1223000   7.9968990     58.3386200    -17.2622900   56.4440800    -22.8867300   178.8998000   
4200000000    -7.0389620    132.6870000   7.9120800     55.6940600    -17.2583100   53.9970800    -22.0886700   173.7019000   
4225000000    -6.8631780    130.3450000   7.8300680     53.0610100    -17.2572700   51.5481100    -21.3290000   169.0324000   
4250000000    -6.7023580    127.9103000   7.7517370     50.4166900    -17.2494000   49.1041300    -20.6386400   164.9454000   
4275000000    -6.5353470    125.5053000   7.6654730     47.8008400    -17.2443800   46.6208600    -19.9788100   160.9964000   
4300000000    -6.3885630    123.0821000   7.5799080     45.1425200    -17.2494400   44.1721700    -19.3476400   157.2191000   
4325000000    -6.2377280    120.7822000   7.4899530     42.5115900    -17.2435000   41.7504000    -18.7723900   153.5765000   
4350000000    -6.1089330    118.4188000   7.4026570     39.8961100    -17.2442900   39.2845000    -18.2241700   150.2612000   
4375000000    -5.9815750    115.9486000   7.3103140     37.2589500    -17.2500000   36.7951500    -17.7130600   147.1995000   
4400000000    -5.8525600    113.6463000   7.2164480     34.6158300    -17.2587600   34.3517600    -17.2186500   143.9784000   
4425000000    -5.7452180    111.2555000   7.1178380     31.9705500    -17.2724100   31.8587700    -16.7470300   140.9766000   
4450000000    -5.6332210    109.0284000   7.0105810     29.4073600    -17.2897700   29.4140400    -16.2638700   137.8550000   
4475000000    -5.5343340    106.8290000   6.9138660     26.7808900    -17.3073900   26.9641200    -15.8585000   134.9047000   
4500000000    -5.4528990    104.6543000   6.8051170     24.1954100    -17.3315000   24.5009700    -15.4453800   132.0345000   
4525000000    -5.3784760    102.5058000   6.6933630     21.6511700    -17.3613100   22.0784000    -15.0387500   129.0900000   
4550000000    -5.3046610    100.4600000   6.5779690     19.1141200    -17.3964200   19.6584100    -14.6517400   126.2386000   
4575000000    -5.2351780    98.4681700    6.4617490     16.6113400    -17.4345100   17.2984200    -14.2841800   123.4419000   
4600000000    -5.1847040    96.5946000    6.3463450     14.1727000    -17.4757300   14.9722500    -13.9299900   120.7062000   
4625000000    -5.1276810    94.8400700    6.2295510     11.8124100    -17.5167100   12.7229700    -13.5954000   117.8353000   
4650000000    -5.0535210    93.1528200    6.1127350     9.4520250     -17.5606000   10.4972800    -13.2789100   115.0269000   
4675000000    -4.9601720    91.5814500    6.0021910     7.1889000     -17.6037100   8.3687430     -12.9708100   112.2047000   
4700000000    -4.8539270    89.9811100    5.9081400     4.9619260     -17.6262000   6.2721180     -12.6957900   109.4149000   
4725000000    -4.7194930    88.4617200    5.8189840     2.7073090     -17.6428100   4.2069930     -12.4403900   106.6222000   
4750000000    -4.5773780    86.7802000    5.7352460     0.4522963     -17.6522000   2.1164570     -12.1959500   103.8973000   
4775000000    -4.4314720    85.0633800    5.6637060     -1.8616150    -17.6514300   0.0015791     -11.9680400   101.2541000   
4800000000    -4.2940450    83.1149700    5.5950010     -4.1865930    -17.6460300   -2.1647010    -11.7611800   98.6951100    
4825000000    -4.1577590    81.1240100    5.5232010     -6.5620050    -17.6414400   -4.3823700    -11.5608000   96.1801400    
4850000000    -4.0296000    79.0795900    5.4545140     -8.9434600    -17.6389800   -6.6223650    -11.3701700   93.7076000    
4875000000    -3.9115950    76.9722600    5.3821310     -11.3557300   -17.6371900   -8.9156920    -11.1811600   91.3635400    
4900000000    -3.8073660    74.8489100    5.3051010     -13.8083900   -17.6395500   -11.1796000   -11.0079600   89.0580000    
4925000000    -3.7107520    72.7420000    5.2277420     -16.2493700   -17.6425600   -13.4917300   -10.8484700   86.6960600    
4950000000    -3.6176870    70.6200600    5.1501230     -18.6825200   -17.6501000   -15.7928700   -10.6911400   84.2758300    
4975000000    -3.5353470    68.5391800    5.0653360     -21.1324500   -17.6605400   -18.0913000   -10.5252600   81.9190100    
5000000000    -3.4604830    66.4355200    4.9834660     -23.5787300   -17.6730500   -20.3943200   -10.3679600   79.6459000    
5025000000    -3.3949560    64.3389600    4.9002180     -25.9872600   -17.6854000   -22.7000600   -10.2238900   77.3917500    
5050000000    -3.3350900    62.2650900    4.8145370     -28.4341400   -17.7026500   -25.0021100   -10.0920400   75.0422100    
5075000000    -3.2730420    60.2291900    4.7282700     -30.8467600   -17.7181800   -27.2736200   -9.9497710    72.6405000    
5100000000    -3.2205120    58.1730600    4.6428910     -33.3008400   -17.7339100   -29.5834600   -9.8033800    70.3724700    
5125000000    -3.1733020    56.0623200    4.5546780     -35.7059100   -17.7539700   -31.8475100   -9.6617840    68.2558700    
5150000000    -3.1296830    54.0162700    4.4674920     -38.1070400   -17.7788800   -34.1375700   -9.5414850    66.1739800    
5175000000    -3.0890500    51.9858600    4.3734850     -40.5174100   -17.8008900   -36.4272800   -9.4413640    63.9941300    
5200000000    -3.0529150    50.0262100    4.2864250     -42.8843300   -17.8239800   -38.6584500   -9.3290990    61.7345000    
5225000000    -3.0246880    48.1171400    4.1939520     -45.2902100   -17.8506900   -40.9001600   -9.2167810    59.4976200    
5250000000    -2.9982420    46.1607800    4.1023550     -47.6435400   -17.8753200   -43.1506100   -9.1129630    57.3696700    
5275000000    -2.9707560    44.2004700    4.0089670     -49.9987000   -17.9063800   -45.3796800   -9.0200720    55.2898800    
5300000000    -2.9540950    42.3804000    3.9171140     -52.3430300   -17.9342200   -47.5950900   -8.9356690    53.0663900    
5325000000    -2.9314150    40.6128300    3.8283570     -54.6689900   -17.9606900   -49.7663300   -8.8554590    50.7988900    
5350000000    -2.9127470    38.7330600    3.7422140     -57.0133400   -17.9805800   -51.9614800   -8.7640970    48.6032000    
5375000000    -2.8946830    36.8407300    3.6537090     -59.3230100   -18.0092200   -54.1722800   -8.6819730    46.4664800    
5400000000    -2.8689740    34.9226300    3.5657260     -61.6225000   -18.0362600   -56.3320100   -8.6112980    44.3414000    
5425000000    -2.8418600    33.0775900    3.4764980     -63.9726900   -18.0613800   -58.5448300   -8.5444870    42.1763700    
5450000000    -2.8179990    31.2672400    3.3924330     -66.2959600   -18.0902200   -60.6869400   -8.4746620    39.9834900    
5475000000    -2.8016390    29.4690800    3.3078850     -68.5710100   -18.1125800   -62.8318100   -8.4078660    37.9001900    
5500000000    -2.7927220    27.5912400    3.2286820     -70.9088100   -18.1313200   -65.0163300   -8.3562260    35.9311700    
5525000000    -2.7863370    25.6571100    3.1412770     -73.2433200   -18.1592100   -67.1988100   -8.3128700    33.9680100    
5550000000    -2.7847370    23.8024800    3.0518880     -75.6090600   -18.1830900   -69.4314000   -8.2843840    31.9629600    
5575000000    -2.7926060    22.0350900    2.9651730     -77.9541700   -18.2119300   -71.6196400   -8.2528660    29.9722200    
5600000000    -2.8143700    20.2264800    2.8751880     -80.3358700   -18.2427200   -73.8218500   -8.2287330    28.1183600    
5625000000    -2.8483370    18.3708400    2.7834480     -82.7399700   -18.2786300   -76.0807800   -8.2218150    26.4021500    
5650000000    -2.8735160    16.4860100    2.6765590     -85.2068600   -18.3209200   -78.3728600   -8.2290460    24.6835100    
5675000000    -2.9114150    14.6907400    2.5556240     -87.6412100   -18.3866400   -80.6537000   -8.2292900    22.9679400    
5700000000    -2.9462880    13.0308500    2.4060420     -90.0126400   -18.4731100   -82.8224600   -8.1984790    21.3964800    
5725000000    -2.9706450    11.5463500    2.2425740     -92.2340700   -18.5789500   -84.8579300   -8.1318800    20.1636700    
5750000000    -3.0001930    10.1537000    2.0736260     -94.1493200   -18.6898400   -86.6317500   -8.0162640    19.1454600    
5775000000    -3.0188730    8.7917800     1.9149260     -95.8058900   -18.7852800   -88.0685200   -7.8454350    17.8918200    
5800000000    -3.0312400    7.4161710     1.8050860     -97.2243700   -18.8370900   -89.3153500   -7.6447100    15.9648200    
5825000000    -3.0382860    6.0622180     1.7404620     -98.6944700   -18.8330500   -90.5857200   -7.4646050    13.4794900    
5850000000    -3.0374160    4.7002220     1.7083050     -100.2646000  -18.7986900   -92.0022400   -7.3401310    10.8208700    
5875000000    -3.0218290    3.2905400     1.6875350     -102.0092000  -18.7473500   -93.5857500   -7.2724040    8.2710500     
5900000000    -2.9939930    1.8540000     1.6803760     -103.8558000  -18.6959300   -95.2933700   -7.2445530    5.7742250     
5925000000    -2.9538650    0.3795331     1.6691480     -105.8551000  -18.6413700   -97.0923100   -7.2448270    3.2759960     
5950000000    -2.8968090    -1.2216030    1.6560550     -107.8835000  -18.5864300   -98.9912500   -7.2391780    0.8767241     
5975000000    -2.8379880    -2.8269450    1.6414250     -109.9610000  -18.5365200   -100.9122000  -7.2281410    -1.3972280    
6000000000    -2.7898180    -4.4818360    1.6307020     -112.0233000  -18.4852700   -102.8601000  -7.2290780    -3.5197090    
6025000000    -2.7511090    -6.2034610    1.6263850     -114.1474000  -18.4278600   -104.8505000  -7.2452270    -5.5398620    
6050000000    -2.7197190    -8.0661840    1.6139640     -116.3837000  -18.3742100   -106.9243000  -7.2656100    -7.5915300    
6075000000    -2.7021640    -10.0358700   1.6022310     -118.6105000  -18.3282600   -109.0196000  -7.2777380    -9.6509040    
6100000000    -2.6761440    -12.0960500   1.5878850     -120.9089000  -18.2847900   -111.1755000  -7.2836910    -11.6281100   
6125000000    -2.6604490    -14.1358400   1.5653540     -123.1960000  -18.2424500   -113.3333000  -7.2924350    -13.5362100   
6150000000    -2.6593770    -16.1390200   1.5414000     -125.5224000  -18.2106800   -115.4947000  -7.3129610    -15.4591600   
6175000000    -2.6620500    -18.1131000   1.5198910     -127.7902000  -18.1680000   -117.6475000  -7.3367880    -17.4300300   
6200000000    -2.6743590    -20.1063200   1.4917670     -130.1420000  -18.1344600   -119.8596000  -7.3506520    -19.4663400   
6225000000    -2.6901180    -22.0638900   1.4721690     -132.4901000  -18.1005500   -122.0579000  -7.3574880    -21.4461300   
6250000000    -2.7258130    -24.1005100   1.4494940     -134.8642000  -18.0601800   -124.2626000  -7.3631430    -23.3708600   
6275000000    -2.7640830    -26.1979900   1.4202690     -137.2035000  -18.0292800   -126.5060000  -7.3716480    -25.2361900   
6300000000    -2.8153460    -28.2970900   1.3889940     -139.6195000  -17.9961900   -128.7459000  -7.3833730    -27.0968600   
6325000000    -2.8645840    -30.3765300   1.3600660     -142.0421000  -17.9643600   -131.0288000  -7.4011430    -29.0026500   
6350000000    -2.9246670    -32.4338300   1.3197790     -144.4755000  -17.9433100   -133.3405000  -7.4164780    -30.9319900   
6375000000    -2.9908280    -34.4692000   1.2798180     -146.9071000  -17.9209000   -135.6320000  -7.4306190    -32.8670600   
6400000000    -3.0708530    -36.4630100   1.2369830     -149.3559000  -17.9018600   -137.9476000  -7.4433350    -34.7644000   
6425000000    -3.1644210    -38.4620400   1.1886260     -151.7722000  -17.8888200   -140.2302000  -7.4646370    -36.6544100   
6450000000    -3.2628110    -40.3716300   1.1444330     -154.2119000  -17.8768800   -142.5326000  -7.4895930    -38.5653100   
6475000000    -3.3685870    -42.2417100   1.0934650     -156.6301000  -17.8691200   -144.8495000  -7.5153490    -40.5717100   
6500000000    -3.4815940    -44.0483500   1.0350340     -159.0336000  -17.8646400   -147.1205000  -7.5265780    -42.5362500   
6525000000    -3.6005240    -45.8689900   0.9761312     -161.4731000  -17.8643600   -149.4115000  -7.5328210    -44.4436500   
6550000000    -3.7280120    -47.6410300   0.9178879     -163.8041000  -17.8681000   -151.6328000  -7.5508250    -46.2628300   
6575000000    -3.8429300    -49.3595900   0.8518066     -166.1364000  -17.8755400   -153.8140000  -7.5806680    -48.0930100   
6600000000    -3.9585790    -50.9841500   0.7921947     -168.4258000  -17.8758600   -156.0171000  -7.6171440    -50.0395700   
6625000000    -4.0706750    -52.5758200   0.7341878     -170.7396000  -17.8784100   -158.1491000  -7.6472970    -52.0785000   
6650000000    -4.1876400    -54.1161900   0.6821971     -172.9881000  -17.8720100   -160.2747000  -7.6729070    -54.0257300   
6675000000    -4.3142830    -55.7380800   0.6250390     -175.2970000  -17.8704200   -162.4291000  -7.6999970    -55.9397100   
6700000000    -4.4461750    -57.3216500   0.5707058     -177.5596000  -17.8618900   -164.5774000  -7.7433340    -57.8753400   
6725000000    -4.5837360    -58.8967700   0.5178618     -179.8958000  -17.8581700   -166.7100000  -7.7817450    -59.8780400   
6750000000    -4.7279680    -60.4225700   0.4532166     177.8089000   -17.8574700   -168.8913000  -7.8053750    -61.9384400   
6775000000    -4.8812040    -61.8011000   0.3864115     175.5366000   -17.8591600   -170.9790000  -7.8274460    -63.9257500   
6800000000    -5.0406520    -63.0600500   0.3153016     173.3430000   -17.8636500   -173.0429000  -7.8541900    -65.8642000   
6825000000    -5.1873140    -64.1058700   0.2465415     171.1789000   -17.8720500   -175.0897000  -7.8915920    -67.8163200   
6850000000    -5.3275240    -64.8950300   0.1753922     169.1185000   -17.8749800   -177.0420000  -7.9332520    -69.8792500   
6875000000    -5.4327260    -65.5786300   0.1198716     167.1428000   -17.8680300   -178.9448000  -7.9756690    -71.9651900   
6900000000    -5.5088420    -66.2847800   0.0657580     165.2260000   -17.8571400   179.2150000   -8.0179800    -74.1093100   
6925000000    -5.5440460    -66.9063400   0.0348779     163.3919000   -17.8328000   177.4497000   -8.0684220    -76.2333100   
6950000000    -5.5289670    -67.6594100   0.0166312     161.5381000   -17.7899500   175.6725000   -8.1237360    -78.3524500   
6975000000    -5.5011460    -68.5819300   0.0101535     159.7203000   -17.7301000   173.9323000   -8.1935220    -80.4448300   
7000000000    -5.4474200    -69.7400100   0.0361539     157.8359000   -17.6534000   172.1332000   -8.2702870    -82.5701900   
7025000000    -5.3716470    -71.2692600   0.0770792     155.8260000   -17.5552800   170.2082000   -8.3518440    -84.7220600   
7050000000    -5.2945840    -73.0361100   0.1236388     153.7478000   -17.4543900   168.2363000   -8.4282580    -86.8426000   
7075000000    -5.2245530    -75.0256400   0.1801543     151.5826000   -17.3419600   166.1704000   -8.5023320    -88.8915200   
7100000000    -5.1819250    -77.1085400   0.2387830     149.3706000   -17.2224500   164.0003000   -8.5937770    -90.8365400   
7125000000    -5.1620370    -79.4219600   0.3013643     146.9396000   -17.1074200   161.7175000   -8.6964790    -92.7802900   
7150000000    -5.1593810    -82.0158300   0.3605788     144.4933000   -16.9893100   159.3171000   -8.7960000    -94.8098500   
7175000000    -5.1697000    -84.6266200   0.4205297     141.9099000   -16.8741100   156.8529000   -8.8867900    -96.8497500   
7200000000    -5.2024310    -87.2683900   0.4728482     139.2939000   -16.7650400   154.3184000   -8.9733730    -98.8045700   
7225000000    -5.2706220    -89.9528600   0.5200545     136.6056000   -16.6613200   151.7247000   -9.0688490    -100.6960000  
7250000000    -5.3575750    -92.7875900   0.5648947     133.8117000   -16.5611100   149.0475000   -9.1624570    -102.5776000  
7275000000    -5.4759830    -95.7118900   0.6056796     131.0202000   -16.4690600   146.3093000   -9.2489150    -104.4936000  
7300000000    -5.6015140    -98.7519800   0.6263006     128.1443000   -16.3861900   143.5405000   -9.3239540    -106.3875000  
7325000000    -5.7522820    -101.6972000  0.6479945     125.2856000   -16.3116200   140.7212000   -9.4066320    -108.2085000  
7350000000    -5.9253330    -104.6957000  0.6619788     122.3450000   -16.2413300   137.8911000   -9.4911830    -110.0370000  
7375000000    -6.1241210    -107.7745000  0.6707183     119.3867000   -16.1794400   135.0043000   -9.5731480    -111.9571000  
7400000000    -6.3424790    -110.7076000  0.6725367     116.4256000   -16.1252600   132.1411000   -9.6493320    -113.9025000  
7425000000    -6.5884110    -113.8297000  0.6621294     113.4333000   -16.0777200   129.2320000   -9.7153850    -115.8077000  
7450000000    -6.8496300    -116.8648000  0.6513519     110.4421000   -16.0373500   126.3015000   -9.7813420    -117.7345000  
7475000000    -7.1347500    -120.0244000  0.6339467     107.4558000   -16.0029400   123.3809000   -9.8523530    -119.6540000  
7500000000    -7.4379510    -123.1042000  0.6100625     104.4279000   -15.9780000   120.4557000   -9.9107460    -121.6639000  
7525000000    -7.7508900    -126.2607000  0.5757846     101.4418000   -15.9527100   117.5351000   -9.9683040    -123.6590000  
7550000000    -8.0890550    -129.4220000  0.5440244     98.4371100    -15.9399000   114.6202000   -10.0270200   -125.6665000  
7575000000    -8.4465790    -132.6265000  0.5068381     95.4435400    -15.9230900   111.7056000   -10.0844100   -127.7368000  
7600000000    -8.8122990    -135.9748000  0.4677886     92.4704700    -15.9112500   108.8107000   -10.1390600   -129.8236000  
7625000000    -9.1910800    -139.4303000  0.4248586     89.4464300    -15.9032800   105.9032000   -10.1896700   -131.9281000  
7650000000    -9.5816480    -142.9221000  0.3861248     86.4218300    -15.8930300   102.9745000   -10.2405700   -133.9643000  
7675000000    -10.0378600   -146.6386000  0.3405078     83.3996100    -15.8842000   100.0116000   -10.2954300   -136.0770000  
7700000000    -10.5190400   -150.6659000  0.2890085     80.3227000    -15.8782400   97.0253800    -10.3506300   -138.2359000  
7725000000    -11.0336000   -155.1635000  0.2368393     77.1962700    -15.8817600   93.9940700    -10.3874700   -140.4579000  
7750000000    -11.5992600   -159.8096000  0.1761327     74.0612700    -15.8962400   90.9564800    -10.4221000   -142.6743000  
7775000000    -12.1940600   -164.7238000  0.1038412     70.8984800    -15.9087400   87.8871300    -10.4513200   -144.9022000  
7800000000    -12.8931600   -170.0065000  0.0266019     67.7159900    -15.9413300   84.7991700    -10.4832400   -147.1969000  
7825000000    -13.6681300   -175.9094000  -0.0676309    64.5615800    -15.9768500   81.7250200    -10.5088200   -149.5913000  
7850000000    -14.5015400   177.7578000   -0.1774932    61.3983400    -16.0286400   78.6442600    -10.5311000   -152.0336000  
7875000000    -15.3935900   170.7469000   -0.2905794    58.2595500    -16.0904800   75.6241600    -10.5538700   -154.5665000  
7900000000    -16.3860400   163.1089000   -0.4174593    55.1780100    -16.1648800   72.6014400    -10.5759000   -157.1774000  
7925000000    -17.4894300   154.4312000   -0.5500309    52.1554500    -16.2485100   69.6604500    -10.5982800   -159.8569000  
7950000000    -18.6315800   144.1087000   -0.6952294    49.2008200    -16.3371300   66.7701600    -10.6180800   -162.6194000  
7975000000    -19.6881200   132.5165000   -0.8489312    46.2912100    -16.4341100   64.0117600    -10.6474400   -165.4633000  
8000000000    -20.7079300   119.3490000   -0.9978470    43.5183600    -16.5346100   61.2884100    -10.6824100   -168.4079000  
8025000000    -21.4565700   105.1024000   -1.1554720    40.8918500    -16.6312400   58.6909600    -10.7170900   -171.4022000  
8050000000    -21.9247200   90.2453600    -1.2959810    38.2965300    -16.7272400   56.1891400    -10.7539400   -174.4326000  
8075000000    -22.0913400   75.6390600    -1.4407510    35.8022200    -16.8112600   53.7740900    -10.8012100   -177.4312000  
8100000000    -21.8668300   62.3109000    -1.5591710    33.4063100    -16.8827500   51.4062200    -10.8542600   179.5642000   
8125000000    -21.3985700   51.5145900    -1.6632340    31.0011500    -16.9401800   49.1068600    -10.9150000   176.5352000   
8150000000    -20.7946500   43.0585500    -1.7554670    28.6328800    -16.9783600   46.7984200    -10.9751200   173.5015000   
8175000000    -20.2267400   36.5886800    -1.8243340    26.2052100    -17.0014500   44.4742200    -11.0292900   170.5199000   
8200000000    -19.5163100   31.5943200    -1.8795210    23.7354700    -17.0031000   42.0689700    -11.0843000   167.5684000   
8225000000    -18.7641400   27.8833800    -1.9236190    21.0846500    -16.9964800   39.5755900    -11.1435200   164.6431000   
8250000000    -17.9705100   25.3805500    -1.9644250    18.3651700    -16.9822900   36.9392700    -11.1889000   161.6443000   
8275000000    -17.1525500   23.4618300    -1.9994390    15.4967300    -16.9669700   34.1776700    -11.2158200   158.6067000   
8300000000    -16.3248800   21.3661600    -2.0418220    12.5073200    -16.9562500   31.2732400    -11.2198600   155.6035000   
8325000000    -15.4749900   18.9954300    -2.1002390    9.3492600     -16.9549300   28.2740600    -11.2112100   152.6715000   
8350000000    -14.6006600   16.5747100    -2.1693650    6.1346140     -16.9665400   25.1401900    -11.1967600   149.7202000   
8375000000    -13.7479800   14.0440500    -2.2509990    2.8625970     -16.9937200   21.9767300    -11.1738200   146.6664000   
8400000000    -12.9817400   11.4462500    -2.3582090    -0.4867405    -17.0406100   18.7471200    -11.1405300   143.4577000   
8425000000    -12.2530700   8.3779410     -2.4811890    -3.8726240    -17.1030200   15.5073600    -11.0935700   140.1965000   
8450000000    -11.5612400   5.0633090     -2.6254420    -7.2697330    -17.1829100   12.2313800    -11.0403800   136.9187000   
8475000000    -10.8899900   1.8018700     -2.7870090    -10.5968900   -17.2810500   8.9733830     -10.9909300   133.5563000   
8500000000    -10.2903800   -1.3204090    -2.9727690    -13.8765000   -17.3937300   5.7752560     -10.9399200   130.0135000   
8525000000    -9.7572000    -4.5685340    -3.1651280    -17.1597100   -17.5205100   2.5945330     -10.8748300   126.3267000   
8550000000    -9.2674850    -7.8804540    -3.3768670    -20.3449100   -17.6647400   -0.5601649    -10.8017600   122.6205000   
8575000000    -8.8132790    -11.1939600   -3.6116040    -23.4612500   -17.8209900   -3.5984110    -10.7252300   118.9443000   
8600000000    -8.3959750    -14.5821800   -3.8465970    -26.5020300   -17.9837300   -6.5793360    -10.6536500   115.2117000   
8625000000    -8.0128190    -17.7974800   -4.0942950    -29.4487200   -18.1618600   -9.4900050    -10.5824500   111.3840000   
8650000000    -7.6827170    -21.0754900   -4.3507430    -32.2947500   -18.3414500   -12.3215300   -10.5018600   107.5489000   
8675000000    -7.3659960    -24.2675000   -4.6086550    -35.0330200   -18.5313500   -15.0625000   -10.4258100   103.7563000   
8700000000    -7.0748020    -27.4253800   -4.8847360    -37.6553100   -18.7232800   -17.7346300   -10.3570100   99.9663300    
8725000000    -6.8216340    -30.4059600   -5.1512300    -40.2001500   -18.9201100   -20.2653800   -10.2913100   96.0806300    
8750000000    -6.5935250    -33.3879500   -5.4237550    -42.6242000   -19.1084400   -22.7342900   -10.2133400   92.1756700    
8775000000    -6.3900690    -36.3198000   -5.6901090    -44.9059000   -19.2997300   -25.1121900   -10.1318400   88.3540400    
8800000000    -6.2071220    -39.1063100   -5.9581610    -47.1515800   -19.4938800   -27.4108900   -10.0551600   84.5812400    
8825000000    -6.0363660    -41.8451000   -6.2194480    -49.2538100   -19.6749800   -29.6646700   -9.9848910    80.8061500    
8850000000    -5.8794980    -44.4333900   -6.4696440    -51.3073400   -19.8548500   -31.8097700   -9.9050270    77.0280500    
8875000000    -5.7447530    -46.9360700   -6.7199010    -53.3217700   -20.0239000   -33.9618100   -9.8176810    73.3139400    
8900000000    -5.6103160    -49.4311900   -6.9504040    -55.2455600   -20.1930300   -36.0556800   -9.7338450    69.6709100    
8925000000    -5.4911650    -51.8077500   -7.1901120    -57.1393700   -20.3572600   -38.1411100   -9.6513140    66.0371600    
8950000000    -5.3735330    -54.1432000   -7.4258160    -59.0688500   -20.5172600   -40.2048500   -9.5606890    62.3784300    
8975000000    -5.2636690    -56.4422000   -7.6578670    -60.8737100   -20.6836900   -42.2293600   -9.4632820    58.7964900    
9000000000    -5.1610010    -58.7627300   -7.8901070    -62.6579900   -20.8473700   -44.2258800   -9.3668840    55.2574800    
9025000000    -5.0520510    -61.0786200   -8.1200580    -64.3164400   -21.0120800   -46.2008400   -9.2757370    51.7234600    
9050000000    -4.9566860    -63.3042300   -8.3615220    -65.8336400   -21.1862800   -48.0397000   -9.1801270    48.1475000    
9075000000    -4.8677850    -65.5036700   -8.5798080    -67.3156000   -21.3459800   -49.8111900   -9.0683120    44.6294600    
9100000000    -4.8008720    -67.7031700   -8.8039880    -68.6152800   -21.5131400   -51.4766600   -8.9619290    41.2381100    
9125000000    -4.7401260    -69.9353800   -9.0135100    -69.7563700   -21.6701100   -53.0041600   -8.8681740    37.8923300    
9150000000    -4.6910200    -72.1553700   -9.1943370    -70.8823900   -21.8102200   -54.4662900   -8.7849050    34.4826300    
9175000000    -4.6570470    -74.3096600   -9.3512240    -71.8216900   -21.9440300   -55.7915300   -8.6939920    31.0442300    
9200000000    -4.6437830    -76.4670100   -9.4848360    -72.7432200   -22.0458800   -56.9843800   -8.5896650    27.7122700    
9225000000    -4.6390710    -78.6690000   -9.5779370    -73.5581800   -22.1267000   -58.1852500   -8.4942160    24.5118000    
9250000000    -4.6402000    -80.7181500   -9.6477230    -74.3222900   -22.1859000   -59.2892000   -8.4136670    21.3828400    
9275000000    -4.6515870    -82.6029200   -9.6645480    -75.2396100   -22.2042800   -60.3961100   -8.3334410    18.2537400    
9300000000    -4.6837450    -84.3557900   -9.6550270    -76.3200100   -22.1934700   -61.5929300   -8.2514040    15.1802000    
9325000000    -4.7341490    -85.9650700   -9.6180870    -77.4202700   -22.1448000   -62.8397100   -8.1654350    12.2285100    
9350000000    -4.7874760    -87.5653300   -9.5469970    -78.9030400   -22.0728300   -64.3005400   -8.0781600    9.3372010     
9375000000    -4.8343110    -89.0142900   -9.4654880    -80.6269400   -21.9873600   -65.9512100   -7.9968040    6.4948250     
9400000000    -4.8786330    -90.2868000   -9.3765380    -82.6306700   -21.8874400   -67.8426100   -7.9054330    3.7032900     
9425000000    -4.9165110    -91.4154400   -9.2987580    -84.9011300   -21.7832100   -69.9526200   -7.8042350    0.9844525     
9450000000    -4.9337370    -92.4699000   -9.2446890    -87.3180300   -21.6776000   -72.2550700   -7.6982120    -1.6295300    
9475000000    -4.9350270    -93.4234400   -9.2063520    -89.9439800   -21.5969100   -74.7993500   -7.5911400    -4.2025810    
9500000000    -4.9157740    -94.3750200   -9.1954740    -92.7336700   -21.5295100   -77.4700500   -7.4816820    -6.7832110    
9525000000    -4.8766840    -95.2159700   -9.2169260    -95.5029500   -21.4855000   -80.2561300   -7.3647570    -9.3977260    
9550000000    -4.8174890    -96.1338100   -9.2567350    -98.3790800   -21.4624500   -83.1218000   -7.2358740    -12.0134600   
9575000000    -4.7542420    -97.0883300   -9.3389730    -101.2478000  -21.4671100   -86.0067700   -7.1039980    -14.5955400   
9600000000    -4.6809850    -98.1572100   -9.4350190    -104.0295000  -21.4947000   -88.8470200   -6.9733570    -17.1392600   
9625000000    -4.6004110    -99.3044700   -9.5579330    -106.7576000  -21.5363700   -91.7110700   -6.8476740    -19.7352200   
9650000000    -4.5135270    -100.6184000  -9.6771240    -109.3447000  -21.6024400   -94.4013100   -6.7273650    -22.3713400   
9675000000    -4.4404010    -101.9260000  -9.8363820    -111.7297000  -21.6730900   -97.1015900   -6.6007660    -25.0654200   
9700000000    -4.3738490    -103.2942000  -9.9766450    -114.0953000  -21.7548400   -99.6508300   -6.4722730    -27.7293900   
9725000000    -4.3157830    -104.7447000  -10.1267000   -116.2714000  -21.8364300   -102.0751000  -6.3474430    -30.3064400   
9750000000    -4.2652680    -106.2333000  -10.2635300   -118.1494000  -21.9131200   -104.3719000  -6.2340760    -32.8920300   
9775000000    -4.2240350    -107.7687000  -10.3703400   -120.1329000  -21.9871100   -106.6168000  -6.1250430    -35.4713700   
9800000000    -4.1936440    -109.2288000  -10.4682100   -121.9668000  -22.0475700   -108.7305000  -6.0196330    -38.0306100   
9825000000    -4.1654140    -110.6250000  -10.5455800   -123.7754000  -22.0861500   -110.7601000  -5.9165120    -40.5282500   
9850000000    -4.1566160    -111.9679000  -10.5851100   -125.5649000  -22.1060800   -112.8304000  -5.8205820    -43.0078100   
9875000000    -4.1676160    -113.2830000  -10.6317600   -127.5410000  -22.1058700   -114.9281000  -5.7331400    -45.5084100   
9900000000    -4.1661780    -114.5069000  -10.6310600   -129.6184000  -22.0853600   -117.0789000  -5.6422850    -48.0188900   
9925000000    -4.1655540    -115.6850000  -10.6316900   -131.7824000  -22.0539600   -119.3182000  -5.5510120    -50.4866700   
9950000000    -4.1609660    -116.6955000  -10.6230900   -134.1610000  -22.0038800   -121.6364000  -5.4527630    -52.9001000   
9975000000    -4.1600130    -117.6396000  -10.6260600   -136.6833000  -21.9624800   -124.1153000  -5.3592410    -55.3005300   
10000000000   -4.1407790    -118.5877000  -10.6188600   -139.3292000  -21.9107600   -126.7431000  -5.2642960    -57.6640400   
10025000000   -4.1113500    -119.5492000  -10.6572900   -142.1090000  -21.8637400   -129.4528000  -5.1627550    -59.9761300   
10050000000   -4.0592800    -120.4977000  -10.6933000   -145.0066000  -21.8308200   -132.2766000  -5.0652830    -62.2776000   
10075000000   -3.9975510    -121.3577000  -10.7563400   -147.9604000  -21.8069000   -135.1786000  -4.9775630    -64.5957900   
10100000000   -3.9382690    -122.2681000  -10.8344700   -150.8443000  -21.7926000   -138.0889000  -4.8864240    -66.9747500   
10125000000   -3.8764340    -123.2742000  -10.9224200   -153.7171000  -21.7919100   -141.0391000  -4.7931250    -69.3726500   
10150000000   -3.8047340    -124.4281000  -11.0384600   -156.4884000  -21.7976900   -143.9721000  -4.6981200    -71.7185500   
10175000000   -3.7270600    -125.5884000  -11.1494500   -159.4531000  -21.8111900   -146.8903000  -4.6057050    -74.0406500   
10200000000   -3.6493110    -126.5746000  -11.2769800   -162.2199000  -21.8191900   -149.7482000  -4.5209320    -76.3537500   
10225000000   -3.5778110    -127.7531000  -11.3920300   -165.0207000  -21.8332900   -152.6608000  -4.4389130    -78.6976000   
10250000000   -3.5165020    -128.9384000  -11.5262700   -167.7399000  -21.8412700   -155.5630000  -4.3640040    -81.0497100   
10275000000   -3.4520930    -130.2489000  -11.6487000   -170.4379000  -21.8445300   -158.4915000  -4.2857730    -83.4027300   
10300000000   -3.3710170    -131.5092000  -11.7784000   -173.2314000  -21.8493700   -161.4322000  -4.2134460    -85.7494000   
10325000000   -3.2985270    -132.7016000  -11.9225500   -176.0027000  -21.8557100   -164.4057000  -4.1454200    -88.0921600   
10350000000   -3.2363240    -133.9016000  -12.0643000   -178.6598000  -21.8620700   -167.3907000  -4.0823490    -90.4171600   
10375000000   -3.1701890    -135.1945000  -12.2130300   178.4747000   -21.8609900   -170.4652000  -4.0166110    -92.7558200   
10400000000   -3.1014310    -136.5556000  -12.3707100   175.6429000   -21.8651700   -173.6524000  -3.9583210    -95.0991800   
10425000000   -3.0355240    -137.8016000  -12.5453000   172.9566000   -21.8814400   -176.7368000  -3.9114300    -97.3548900   
10450000000   -2.9673830    -139.1149000  -12.7361800   170.1505000   -21.8979000   -179.9275000  -3.8701730    -99.5843300   
10475000000   -2.9002970    -140.4718000  -12.9284400   167.4750000   -21.9276300   176.8606000   -3.8485030    -101.8276000  
10500000000   -2.8414490    -141.9080000  -13.1376400   164.8059000   -21.9644300   173.6196000   -3.8283760    -104.0577000  
10525000000   -2.7762920    -143.3150000  -13.3491200   162.2188000   -22.0020800   170.4301000   -3.8172590    -106.2398000  
10550000000   -2.7160320    -144.7436000  -13.6052400   159.6382000   -22.0651800   167.2148000   -3.8143550    -108.2936000  
10575000000   -2.6625790    -146.1001000  -13.8308600   157.3775000   -22.1324600   164.1685000   -3.8214000    -110.1937000  
10600000000   -2.6005180    -147.5510000  -14.0576500   155.1505000   -22.1943100   161.1997000   -3.8218720    -111.9735000  
10625000000   -2.5598030    -149.0697000  -14.3026000   153.0083000   -22.2656600   158.3255000   -3.8088180    -113.6573000  
10650000000   -2.5116760    -150.6227000  -14.5504200   151.1285000   -22.3241600   155.5969000   -3.7695340    -115.2229000  
10675000000   -2.4660110    -152.0972000  -14.7658500   149.3194000   -22.3650400   153.0745000   -3.7024090    -116.6790000  
10700000000   -2.4243360    -153.5596000  -14.9603300   147.7532000   -22.3721800   150.6409000   -3.6061580    -118.1152000  
10725000000   -2.3997150    -155.0640000  -15.1307000   146.0039000   -22.3439500   148.1772000   -3.4887180    -119.6948000  
10750000000   -2.3647100    -156.5783000  -15.2984900   144.4850000   -22.2811200   145.6898000   -3.3643510    -121.4126000  
10775000000   -2.3349060    -158.0576000  -15.4117600   142.7247000   -22.1877700   143.1171000   -3.2257010    -123.2721000  
10800000000   -2.3096210    -159.6189000  -15.5500300   141.1490000   -22.0666000   140.3595000   -3.0919660    -125.2729000  
10825000000   -2.2918480    -161.1469000  -15.6599600   139.5348000   -21.9352500   137.5247000   -2.9593680    -127.4075000  
10850000000   -2.2758250    -162.6262000  -15.7577900   137.8861000   -21.7810900   134.5760000   -2.8352590    -129.5920000  
10875000000   -2.2696960    -164.1741000  -15.8354000   136.2590000   -21.6100900   131.4561000   -2.7186630    -131.8226000  
10900000000   -2.2670810    -165.6867000  -15.8925200   134.4088000   -21.4204300   128.2583000   -2.6144570    -134.1113000  
10925000000   -2.2639990    -167.2828000  -15.9366700   132.7501000   -21.2152700   124.8493000   -2.5129480    -136.4917000  
10950000000   -2.2672650    -168.7978000  -15.9648800   130.9246000   -20.9993500   121.3123000   -2.4148090    -138.9435000  
10975000000   -2.2721770    -170.2319000  -15.9890300   129.1338000   -20.7611400   117.6641000   -2.3201040    -141.3715000  
11000000000   -2.2886840    -171.7743000  -15.9634900   127.1340000   -20.5027900   113.7970000   -2.2386160    -143.8075000  
11025000000   -2.3232110    -173.2853000  -15.9204800   125.1199000   -20.2358400   109.7850000   -2.1685490    -146.3060000  
11050000000   -2.3375660    -174.9692000  -15.8476700   122.7255000   -19.9302000   105.4713000   -2.0987350    -148.9415000  
11075000000   -2.3641150    -176.4556000  -15.7763100   120.3116000   -19.6267300   100.9534000   -2.0367740    -151.6775000  
11100000000   -2.3957720    -177.8428000  -15.6680800   117.7978000   -19.3043300   96.1619100    -1.9821820    -154.4050000  
11125000000   -2.4403600    -179.1811000  -15.5274800   114.8172000   -18.9530000   91.0751100    -1.9476720    -157.1991000  
11150000000   -2.5133980    179.4313000   -15.3985600   111.4645000   -18.5961600   85.6064600    -1.9308360    -160.1448000  
11175000000   -2.5871010    178.0118000   -15.2714400   107.7101000   -18.2331300   79.6618500    -1.9377650    -163.2474000  
11200000000   -2.6607750    176.6605000   -15.1301900   103.4242000   -17.8674400   73.2926400    -1.9657470    -166.4227000  
11225000000   -2.7317640    175.5178000   -15.0274400   98.6147400    -17.5127000   66.4204900    -2.0380340    -169.6538000  
11250000000   -2.8183700    174.6152000   -14.9640200   93.2538900    -17.1860900   58.9658400    -2.1683540    -172.9351000  
11275000000   -2.9134390    173.7213000   -14.9741200   87.2950200    -16.8943900   50.9450400    -2.3630360    -176.2330000  
11300000000   -2.9920510    172.9857000   -15.0941900   80.7759900    -16.6647400   42.3215100    -2.6309180    -179.4136000  
11325000000   -3.0472400    172.3217000   -15.3559300   73.8130900    -16.5319800   33.0712900    -2.9884200    177.7596000   
11350000000   -3.0741850    171.7991000   -15.8339200   66.8081200    -16.5195400   23.4531100    -3.4325030    175.5676000   
11375000000   -3.0746740    171.2559000   -16.5678200   60.2077900    -16.6542500   13.6369800    -3.9374960    174.4036000   
11400000000   -3.0646040    170.5416000   -17.5678100   55.2171800    -16.9572300   3.8030460     -4.4354600    174.5707000   
11425000000   -3.0570930    169.6702000   -18.7275900   53.8824100    -17.4451000   -5.4742320    -4.8082680    176.2513000   
11450000000   -3.0756730    168.7748000   -19.4091300   57.1504100    -18.0669100   -13.4879600   -4.9043340    178.7729000   
11475000000   -3.1269120    168.1501000   -18.9639700   60.0442500    -18.6527800   -19.8237000   -4.6912760    -179.3895000  
11500000000   -3.1657660    167.8658000   -18.0396700   56.4394400    -19.0414200   -25.3594900   -4.3608010    -179.1314000  
11525000000   -3.1314120    167.8178000   -17.4765000   47.8455300    -19.2456300   -31.4578400   -4.0781350    -179.9983000  
11550000000   -3.0304160    167.6157000   -17.4733700   37.0283200    -19.4412200   -38.5922100   -3.8797380    178.7633000   
11575000000   -2.9004850    167.1787000   -17.8871700   26.2919000    -19.7084900   -46.2986500   -3.7145920    177.5129000   
11600000000   -2.7718610    166.4189000   -18.6153600   15.5912500    -20.0808400   -54.2444000   -3.5366990    176.2633000   
11625000000   -2.6333180    165.3616000   -19.5816600   5.3250510     -20.5414000   -62.2017900   -3.3434590    174.8680000   
11650000000   -2.4948820    164.2854000   -20.7938900   -4.6111770    -21.0785400   -69.9006700   -3.1500330    173.2296000   
11675000000   -2.3657740    163.1689000   -22.2193300   -13.9878700   -21.6930700   -77.2913700   -2.9767360    171.2320000   
11700000000   -2.2629250    161.9180000   -23.9212600   -23.0922000   -22.3672400   -84.2686200   -2.8213900    169.0107000   
11725000000   -2.1752520    160.5406000   -25.8752200   -31.4469600   -23.0864300   -90.7569700   -2.6955620    166.6918000   
11750000000   -2.0848150    158.9515000   -28.1247100   -39.7369600   -23.8202200   -96.7791700   -2.6064980    164.3581000   
11775000000   -2.0222240    157.3324000   -30.8551600   -48.8474300   -24.5860200   -102.2231000  -2.5609860    161.9982000   
11800000000   -1.9517790    155.8275000   -34.1937100   -56.5658600   -25.3251200   -107.1477000  -2.5400670    159.6258000   
11825000000   -1.9032930    154.3440000   -38.4161600   -66.0929900   -26.0544200   -111.6012000  -2.5314150    157.3325000   
11850000000   -1.8706450    152.8281000   -44.5129100   -83.6739500   -26.7464400   -115.6754000  -2.5365680    155.2063000   
11875000000   -1.8384360    151.2530000   -52.5271100   -162.1283000  -27.4147200   -119.4446000  -2.5626550    153.2285000   
11900000000   -1.8115580    149.7975000   -45.6228000   142.5853000   -28.0341000   -122.8464000  -2.5966060    151.2489000   
11925000000   -1.7836100    148.3231000   -41.2225500   123.6932000   -28.6209400   -126.0611000  -2.6310430    149.2808000   
11950000000   -1.7748680    146.8863000   -38.6408200   115.3309000   -29.1894500   -129.0960000  -2.6548180    147.4159000   
11975000000   -1.7597430    145.4932000   -36.9879700   111.0424000   -29.7075600   -131.8967000  -2.6791390    145.6939000   
12000000000   -1.7498510    144.0607000   -35.6315200   107.1739000   -30.1872200   -134.5971000  -2.7123300    144.0263000   
12025000000   -1.7360650    142.5963000   -34.8835900   103.9676000   -30.6306600   -137.2293000  -2.7366090    142.3003000   
12050000000   -1.7286870    141.2258000   -34.1797900   101.7328000   -31.0449400   -139.7429000  -2.7549170    140.5703000   
12075000000   -1.7259240    139.8891000   -33.6190000   98.4656800    -31.4269400   -142.1304000  -2.7630900    138.9077000   
12100000000   -1.7182250    138.5603000   -33.1556100   97.0457900    -31.7736400   -144.5702000  -2.7759640    137.2685000   
12125000000   -1.7173080    137.1893000   -32.7905300   95.7212100    -32.0979000   -146.9597000  -2.7889740    135.6293000   
12150000000   -1.7172030    135.8398000   -32.4862400   93.7565000    -32.3809400   -149.2915000  -2.7919450    133.9414000   
12175000000   -1.7163900    134.3784000   -32.2877200   92.7727100    -32.6498200   -151.7878000  -2.7920830    132.2750000   
12200000000   -1.7117910    133.0835000   -32.1708700   91.1653900    -32.8932000   -154.1425000  -2.7881000    130.6417000   
12225000000   -1.7039330    131.8298000   -31.9967000   90.4258400    -33.1237800   -156.5446000  -2.7891980    128.9970000   
12250000000   -1.7178440    130.4450000   -31.8043100   89.4068100    -33.3449300   -159.0211000  -2.7873280    127.3548000   
12275000000   -1.7149930    129.1536000   -31.7052700   88.4194000    -33.5433200   -161.5178000  -2.7856800    125.7253000   
12300000000   -1.7181960    127.8321000   -31.4373400   87.8684100    -33.7428800   -163.9707000  -2.7826660    124.1233000   
12325000000   -1.7210300    126.4659000   -31.2748300   86.9746800    -33.9167600   -166.5355000  -2.7842000    122.4580000   
12350000000   -1.7244290    125.1964000   -31.1793900   86.2031000    -34.1005600   -169.1109000  -2.7862980    120.7454000   
12375000000   -1.7238790    123.9230000   -31.0191500   85.4592500    -34.2740700   -171.6186000  -2.7865310    119.0339000   
12400000000   -1.7370340    122.5077000   -30.9130300   83.9815800    -34.4421000   -174.1594000  -2.7850970    117.3624000   
12425000000   -1.7474710    121.2467000   -30.7711400   83.9583100    -34.6068400   -176.6234000  -2.7823950    115.6450000   
12450000000   -1.7482470    119.9027000   -30.6155000   82.2106900    -34.7696500   -179.1041000  -2.7840130    113.8979000   
12475000000   -1.7540550    118.6562000   -30.5522900   80.7096600    -34.9423900   178.4597000   -2.7839490    112.1596000   
12500000000   -1.7712320    117.3535000   -30.4841300   79.9710200    -35.0952000   176.0450000   -2.7820590    110.4813000   
12525000000   -1.7796680    116.0440000   -30.3230100   79.4117900    -35.2497700   173.7447000   -2.7780460    108.8095000   
12550000000   -1.7902510    114.7460000   -30.2699100   78.4805600    -35.3977000   171.5242000   -2.7889040    107.1417000   
12575000000   -1.7925580    113.4533000   -30.1015800   77.1982700    -35.5302400   169.2244000   -2.7963180    105.3931000   
12600000000   -1.7985680    112.2650000   -30.0438400   76.4631600    -35.6685900   167.1299000   -2.8062390    103.5819000   
12625000000   -1.8173990    110.9558000   -29.9994700   75.6262900    -35.7942800   165.0432000   -2.8107030    101.8025000   
12650000000   -1.8378660    109.6462000   -29.8908400   75.2443300    -35.9149900   162.9879000   -2.8136070    100.0523000   
12675000000   -1.8481220    108.3055000   -29.8242000   73.5096700    -36.0309000   160.9330000   -2.8234630    98.3145700    
12700000000   -1.8560990    107.1030000   -29.6960600   73.1130100    -36.1164800   159.0503000   -2.8361740    96.5354200    
12725000000   -1.8647950    105.8829000   -29.6031000   72.4903200    -36.2091800   157.0575000   -2.8493540    94.7145900    
12750000000   -1.8781010    104.6266000   -29.5517800   71.6953900    -36.2831600   155.1949000   -2.8560520    92.8836300    
12775000000   -1.9045740    103.3161000   -29.5055400   71.0068300    -36.3464900   153.3478000   -2.8661120    91.0807000    
12800000000   -1.9161140    101.9818000   -29.3991500   70.8343400    -36.4054100   151.4319000   -2.8804590    89.2835900    
12825000000   -1.9255850    100.7423000   -29.2417000   69.9724900    -36.4684100   149.6706000   -2.8981700    87.4502900    
12850000000   -1.9486960    99.4522200    -29.1514100   69.3074600    -36.5129300   147.7890000   -2.9066400    85.5691500    
12875000000   -1.9669690    98.2777900    -29.0218100   68.5999100    -36.5656500   146.0059000   -2.9222830    83.7231100    
12900000000   -1.9858200    97.0160100    -28.8567300   67.4874300    -36.5977600   144.2560000   -2.9373790    81.8880300    
12925000000   -1.9930420    95.7097000    -28.7956700   66.7243900    -36.6367000   142.5318000   -2.9609130    80.0047100    
12950000000   -2.0196720    94.4555700    -28.5439300   66.1235700    -36.6875700   140.9549000   -2.9932490    78.0562200    
12975000000   -2.0388470    93.3005300    -28.4505100   65.5877600    -36.7207500   139.6057000   -3.0089090    76.0733800    
13000000000   -2.0633380    91.9852300    -28.3660900   64.7262600    -36.7378300   138.2285000   -3.0320320    74.1099900    
13025000000   -2.0860310    90.7080500    -28.1015900   63.9057800    -36.7254400   137.0568000   -3.0620340    72.1613000    
13050000000   -2.0950020    89.4072000    -28.0062100   63.1704900    -36.6766800   136.0243000   -3.1031680    70.1828900    
13075000000   -2.1266360    88.0994500    -27.8529500   62.2918100    -36.6083400   135.0427000   -3.1385350    68.1697300    
13100000000   -2.1365390    86.8442800    -27.6341900   61.9022800    -36.4868600   133.9534000   -3.1670030    66.2299400    
13125000000   -2.1611730    85.6153600    -27.4828600   60.9061400    -36.3229000   132.7969000   -3.2053030    64.3246800    
13150000000   -2.1816430    84.3354900    -27.2411900   60.0907800    -36.1268900   131.4584000   -3.2655610    62.4294400    
13175000000   -2.2045590    83.1250700    -27.0757200   59.2013400    -35.9199400   129.9953000   -3.3238990    60.4637100    
13200000000   -2.2370660    81.8192400    -26.7943500   58.4452200    -35.6951100   128.2621000   -3.3710140    58.4897700    
13225000000   -2.2544930    80.5743800    -26.5948700   57.3945400    -35.4542800   126.3594000   -3.4143930    56.5620900    
13250000000   -2.2871570    79.2519400    -26.3373000   56.2105300    -35.2295200   124.3154000   -3.4787240    54.6355900    
13275000000   -2.3012490    77.9414400    -26.1262000   55.4691900    -34.9981700   122.1546000   -3.5462500    52.6492700    
13300000000   -2.3373710    76.5913200    -25.8540900   54.0462400    -34.7792700   119.7533000   -3.5969430    50.5940500    
13325000000   -2.3574690    75.3343500    -25.6392700   52.6749000    -34.5601100   117.3698000   -3.6502140    48.5838900    
13350000000   -2.3815860    74.1164000    -25.3531200   51.4232700    -34.3548200   114.8529000   -3.7068510    46.6110500    
13375000000   -2.4101790    72.7355000    -25.0453400   50.1582000    -34.1448000   112.2115000   -3.7811190    44.6010400    
13400000000   -2.4343800    71.4537200    -24.8489600   48.3410800    -33.9477900   109.6082000   -3.8437090    42.5602000    
13425000000   -2.4750930    70.1587700    -24.6046300   47.1815000    -33.7621100   106.9888000   -3.9018450    40.5418000    
13450000000   -2.5066960    68.8437000    -24.3305400   45.5681600    -33.5842500   104.2873000   -3.9707660    38.5878800    
13475000000   -2.5288940    67.5692700    -24.0301600   44.0290000    -33.4003200   101.5212000   -4.0600800    36.5681900    
13500000000   -2.5638990    66.2030300    -23.7788700   42.2316100    -33.2191200   98.7114400    -4.1510390    34.3903500    
13525000000   -2.6145530    64.9608000    -23.5039900   40.2540000    -33.0646400   95.8759800    -4.2228900    32.1671300    
13550000000   -2.6515120    63.5504200    -23.2359800   38.6246700    -32.8936000   93.0520700    -4.2943080    30.0701200    
13575000000   -2.6902070    62.2006500    -22.9677100   36.6232000    -32.7380100   90.2246800    -4.3808080    28.0944600    
13600000000   -2.7312020    60.8449700    -22.7067800   34.6013700    -32.5696200   87.3728600    -4.4814850    26.0505000    
13625000000   -2.7777300    59.5752500    -22.4484000   32.6801300    -32.4311600   84.4745500    -4.5749150    23.8982000    
13650000000   -2.8272210    58.2046700    -22.1601300   30.3918200    -32.2881800   81.5989800    -4.6694970    21.8163500    
13675000000   -2.8827300    56.9517600    -21.8973800   28.1565000    -32.1482700   78.6830600    -4.7626060    19.8057200    
13700000000   -2.9271900    55.6372700    -21.6442600   25.9739100    -32.0051800   75.7220800    -4.8809300    17.7973000    
13725000000   -2.9807710    54.3333200    -21.3628900   23.7444400    -31.8774900   72.7679300    -4.9975430    15.6635900    
13750000000   -3.0387430    53.0175100    -21.1229200   21.0701800    -31.7516300   69.7617600    -5.1100840    13.5489200    
13775000000   -3.0976210    51.6834600    -20.8919100   18.4219500    -31.6340700   66.7849000    -5.2230350    11.5422200    
13800000000   -3.1631540    50.4674500    -20.6263700   15.9620500    -31.5366500   63.7535200    -5.3492530    9.6013150     
13825000000   -3.2172800    49.0941700    -20.4026100   13.3732600    -31.4278500   60.7217500    -5.4880840    7.5805370     
13850000000   -3.2815620    47.7915100    -20.1483600   10.5692800    -31.3389300   57.6939500    -5.6149080    5.5492330     
13875000000   -3.3354140    46.4053000    -19.9578400   7.5681650     -31.2708800   54.6834600    -5.7309400    3.6536610     
13900000000   -3.3998280    45.1545000    -19.7515400   4.7272270     -31.2130400   51.6484700    -5.8455940    1.9442520     
13925000000   -3.4590750    43.8890500    -19.5647900   1.8693530     -31.1671900   48.7214800    -5.9843950    0.2998545     
13950000000   -3.5251460    42.6073600    -19.3782300   -1.3052580    -31.1317500   45.8291700    -6.1183330    -1.3868340    
13975000000   -3.5997320    41.2912600    -19.2078700   -4.4582650    -31.1176600   42.8816900    -6.2275040    -3.0551450    
14000000000   -3.6736830    39.9412300    -19.0511800   -7.7992800    -31.1171400   40.0705500    -6.3070840    -4.5975820    
14025000000   -3.7368580    38.6611400    -18.9195900   -10.9130100   -31.1259900   37.3744000    -6.3842630    -6.0061210    
14050000000   -3.7977110    37.3359600    -18.7928000   -14.1720300   -31.1628900   34.7831900    -6.4592500    -7.4375480    
14075000000   -3.8658910    35.9998800    -18.7049100   -17.5887000   -31.2179000   32.2435100    -6.5097030    -8.9096770    
14100000000   -3.9503440    34.6085700    -18.6230400   -21.1259700   -31.2982100   29.7785300    -6.5259230    -10.5013100   
14125000000   -4.0249970    33.1968600    -18.6003600   -24.7024500   -31.4306200   27.4338700    -6.5058580    -12.0577200   
14150000000   -4.0928440    31.7344900    -18.6011700   -28.4933600   -31.6088200   25.4180100    -6.4668320    -13.5448500   
14175000000   -4.1625060    30.2971000    -18.6324500   -32.3301800   -31.8537500   23.9191600    -6.4083900    -15.0414500   
14200000000   -4.2467760    28.8574400    -18.7597200   -36.1908300   -32.1648400   23.1889800    -6.3256350    -16.6941400   
14225000000   -4.3390470    27.3058600    -18.9743100   -40.0198400   -32.5044100   23.5735300    -6.1923290    -18.5652300   
14250000000   -4.4386870    25.6613900    -19.2890200   -43.7895000   -32.8155100   25.6627400    -6.0150760    -20.5937400   
14275000000   -4.5468750    23.9453700    -19.7648000   -47.0497300   -32.9731600   29.5495300    -5.7945170    -22.8376500   
14300000000   -4.6619490    22.2873900    -20.3886500   -49.4002900   -32.7643600   34.9884800    -5.5614710    -25.4149300   
14325000000   -4.8078680    20.6059400    -21.1670800   -50.0992200   -32.0944400   40.4368700    -5.3165530    -28.5623000   
14350000000   -4.9855590    18.8203800    -21.9554800   -48.7050000   -30.9984100   44.2972700    -5.0789910    -32.3024700   
14375000000   -5.1685230    16.9987400    -22.6613300   -43.6886800   -29.6897900   45.6185000    -4.8554740    -36.5581600   
14400000000   -5.3712560    15.1889100    -22.9108300   -36.5438200   -28.3545200   44.4419000    -4.6779850    -41.1334900   
14425000000   -5.6079690    13.5504600    -22.5071200   -28.7704900   -27.1257700   41.4326000    -4.5633690    -45.9872400   
14450000000   -5.8746760    12.0446200    -21.5425500   -22.9420800   -26.0367700   37.1120200    -4.5064270    -51.0358600   
14475000000   -6.1635450    10.5345100    -20.4012100   -20.3949100   -25.0996700   32.1205900    -4.5064070    -56.1572500   
14500000000   -6.4660060    9.0657710     -19.1946100   -20.2898200   -24.2998300   26.6795100    -4.5531920    -61.1615900   
14525000000   -6.7723380    7.7866350     -18.1067600   -21.9058800   -23.6276000   21.0752600    -4.6471590    -66.0882300   
14550000000   -7.0967280    6.7785220     -17.1704500   -24.7350500   -23.0388200   15.4495900    -4.7583610    -70.9107100   
14575000000   -7.4601960    5.8691410     -16.3311600   -28.1644000   -22.5373700   9.8748560     -4.9025980    -75.6041500   
14600000000   -7.8568120    5.0596560     -15.6105900   -31.9564300   -22.0891900   4.4127030     -5.0478620    -80.1244700   
14625000000   -8.2423680    4.1987040     -14.9729100   -36.0868600   -21.6863100   -0.9523091    -5.2203640    -84.5384000   
14650000000   -8.6392320    3.7419730     -14.4083400   -40.3606000   -21.3258400   -6.2234250    -5.3923720    -88.9301400   
14675000000   -9.0530200    3.5915480     -13.8925900   -44.7314300   -20.9905200   -11.3819700   -5.5580620    -93.1868700   
14700000000   -9.5091030    3.9036260     -13.4460400   -49.0495500   -20.6813200   -16.4747500   -5.7226130    -97.3484200   
14725000000   -9.9984420    4.4402820     -13.0262900   -53.3469900   -20.3904400   -21.5210100   -5.9060080    -101.4025000  
14750000000   -10.4758200   5.2788420     -12.6546200   -57.8246700   -20.1179900   -26.4933900   -6.0978490    -105.5023000  
14775000000   -10.9361500   6.6255040     -12.2999600   -62.2627800   -19.8494500   -31.4463400   -6.2626070    -109.5711000  
14800000000   -11.4022900   8.6767940     -11.9873600   -66.7172400   -19.6051500   -36.3901600   -6.4381870    -113.5267000  
14825000000   -11.8425900   11.2379700    -11.7026700   -71.1369900   -19.3724300   -41.3235400   -6.6328780    -117.3202000  
14850000000   -12.2365400   14.3347100    -11.4170700   -75.5129400   -19.1419600   -46.2942300   -6.8349010    -121.0954000  
14875000000   -12.5232700   17.8078200    -11.1692200   -80.0357200   -18.9376800   -51.3212700   -7.0444080    -124.8134000  
14900000000   -12.7001100   21.7925100    -10.9418500   -84.5521900   -18.7499800   -56.3824800   -7.2508790    -128.2287000  
14925000000   -12.7305200   26.1744700    -10.7285500   -89.0332000   -18.5824400   -61.5132100   -7.4740510    -131.2797000  
14950000000   -12.6631500   30.5547100    -10.5473300   -93.5462600   -18.4554300   -66.6738500   -7.7212800    -134.0562000  
14975000000   -12.4827600   34.7125500    -10.4030400   -98.0915500   -18.3551700   -71.7978900   -7.9259310    -136.6447000  
15000000000   -12.1756400   38.4852100    -10.2700200   -102.5649000  -18.3017700   -76.8590100   -8.0447490    -138.8164000  
15025000000   -11.7826400   41.5168800    -10.1645800   -106.9349000  -18.2806400   -81.7496900   -8.0843550    -140.5406000  
15050000000   -11.3127200   44.1316600    -10.0697900   -111.2722000  -18.2801800   -86.4374800   -8.0751230    -142.1917000  
15075000000   -10.8091900   46.1832000    -9.9930340    -115.5298000  -18.2934800   -90.8932700   -8.0084120    -144.2964000  
15100000000   -10.2873000   47.6252300    -9.9284110    -119.6826000  -18.3106300   -95.1492400   -7.8678460    -146.8310000  
15125000000   -9.7594200    48.6104900    -9.8739970    -123.8393000  -18.3198300   -99.2229900   -7.6803650    -149.4796000  
15150000000   -9.2343670    49.0456900    -9.8174910    -127.9001000  -18.3142400   -103.1987000  -7.5004170    -152.1273000  
15175000000   -8.7300830    49.0859700    -9.7545310    -131.8696000  -18.3073800   -107.1143000  -7.3627750    -155.0268000  
15200000000   -8.2439510    48.7218500    -9.7307000    -135.8919000  -18.2910700   -111.0135000  -7.2358350    -158.3089000  
15225000000   -7.7702470    48.0553200    -9.6914460    -139.8630000  -18.2798100   -114.8725000  -7.0939780    -161.6862000  
15250000000   -7.3194800    47.1681600    -9.6725300    -143.8762000  -18.2633900   -118.7123000  -6.9568200    -164.9204000  
15275000000   -6.8935400    46.0509700    -9.6539610    -147.7979000  -18.2518300   -122.5641000  -6.8496110    -168.0496000  
15300000000   -6.5071250    44.6978800    -9.6412660    -151.6272000  -18.2353000   -126.3910000  -6.7559500    -171.3176000  
15325000000   -6.1383230    43.2462300    -9.6501240    -155.5925000  -18.2324000   -130.2298000  -6.6628950    -174.7477000  
15350000000   -5.7989260    41.6402100    -9.6553560    -159.3712000  -18.2301500   -134.0122000  -6.5557350    -178.0429000  
15375000000   -5.4869320    39.9698200    -9.6711300    -163.2513000  -18.2299800   -137.7941000  -6.4478850    178.8435000   
15400000000   -5.1973900    38.2295200    -9.6939950    -167.0137000  -18.2405700   -141.5231000  -6.3763340    175.7823000   
15425000000   -4.9358640    36.2644600    -9.7274430    -170.7032000  -18.2608400   -145.2150000  -6.3230200    172.6481000   
15450000000   -4.6864650    34.2770400    -9.7592570    -174.3557000  -18.2732500   -148.9009000  -6.2513890    169.4184000   
15475000000   -4.4583850    32.3279700    -9.8036210    -178.0682000  -18.3003600   -152.5787000  -6.1737940    166.2467000   
15500000000   -4.2509730    30.3710900    -9.8505780    178.3138000   -18.3272900   -156.2161000  -6.1065030    163.2257000   
15525000000   -4.0681540    28.3531300    -9.8960320    174.7359000   -18.3534800   -159.8411000  -6.0491590    160.3036000   
15550000000   -3.9089220    26.2943900    -9.9472540    171.1245000   -18.3885300   -163.4433000  -6.0152460    157.3323000   
15575000000   -3.7577360    24.2221200    -10.0034500   167.5256000   -18.4261700   -167.0926000  -5.9910810    154.2679000   
15600000000   -3.6182250    22.2392200    -10.0512600   163.9124000   -18.4642100   -170.7101000  -5.9566560    151.1836000   
15625000000   -3.5034420    20.2057600    -10.1147000   160.2722000   -18.5101700   -174.4436000  -5.9138510    148.3190000   
15650000000   -3.4036020    18.1577600    -10.1785900   156.5067000   -18.5719000   -178.2410000  -5.9054080    145.6873000   
15675000000   -3.3188820    16.1482900    -10.2606700   152.7201000   -18.6511100   177.9311000   -5.9494740    143.2080000   
15700000000   -3.2400810    14.2095800    -10.3450600   148.6461000   -18.7503300   173.8562000   -6.0231680    140.7411000   
15725000000   -3.1709860    12.3801400    -10.4817700   144.3444000   -18.9185100   169.6172000   -6.1199030    138.4971000   
15750000000   -3.1217980    10.5863500    -10.7185800   139.8154000   -19.1977800   165.2227000   -6.2247200    136.9394000   
15775000000   -3.0673830    8.9540340     -11.1064700   135.3360000   -19.6346700   161.1936000   -6.2950960    136.4412000   
15800000000   -2.9883700    7.4669660     -11.6921200   131.6351000   -20.2550600   158.4370000   -6.2224270    136.8119000   
15825000000   -2.8856420    5.8785300     -12.3803300   130.1418000   -20.8874800   158.1753000   -5.8867880    136.8469000   
15850000000   -2.7775820    4.1209100     -12.8732200   130.9778000   -21.1864600   159.9308000   -5.3940930    135.3226000   
15875000000   -2.6914950    2.1442930     -12.9838500   132.1952000   -21.0788000   161.2620000   -4.9648520    132.4460000   
15900000000   -2.6288450    0.0586304     -12.8772600   132.4490000   -20.8058400   161.0261000   -4.6888520    129.0371000   
15925000000   -2.5678400    -1.9033360    -12.7005200   131.4980000   -20.5306100   159.5247000   -4.5219450    125.5244000   
15950000000   -2.5166100    -3.6985780    -12.5150500   129.8041000   -20.3061500   157.3597000   -4.3929380    122.0849000   
15975000000   -2.4828620    -5.4784830    -12.3908900   127.6566000   -20.1431300   154.8063000   -4.3012010    118.8490000   
16000000000   -2.4561340    -7.2416050    -12.2977900   125.2145000   -20.0278000   152.1879000   -4.2378950    115.8961000   
16025000000   -2.4353780    -9.0254570    -12.2244300   122.8356000   -19.9337100   149.5244000   -4.1902060    113.0843000   
16050000000   -2.3896690    -10.7476200   -12.1563300   120.3225000   -19.8486200   146.8484000   -4.1447960    110.3197000   
16075000000   -2.3519980    -12.4595800   -12.1223000   117.7048000   -19.7946400   144.1323000   -4.1072630    107.5870000   
16100000000   -2.3296610    -14.2025000   -12.1041900   115.1388000   -19.7595200   141.4538000   -4.0729570    105.0484000   
16125000000   -2.2997730    -15.9336200   -12.0890300   112.6588000   -19.7279400   138.8914000   -4.0545200    102.6272000   
16150000000   -2.2650160    -17.7592200   -12.0763100   110.1367000   -19.6985100   136.3205000   -4.0495090    100.1540000   
16175000000   -2.2202490    -19.4782700   -12.0604400   107.5839000   -19.6734800   133.8014000   -4.0514020    97.6075700    
16200000000   -2.1978270    -21.2067700   -12.0619200   105.1538000   -19.6593900   131.2574000   -4.0464190    95.0761700    
16225000000   -2.1805630    -22.9582800   -12.0625100   102.7250000   -19.6438300   128.8685000   -4.0352790    92.7139800    
16250000000   -2.1524430    -24.7627800   -12.0616400   100.5158000   -19.6287500   126.5755000   -4.0462760    90.5175700    
16275000000   -2.1153150    -26.5617200   -12.0336600   98.2893300    -19.5917900   124.3046000   -4.0665360    88.3694600    
16300000000   -2.0911340    -28.4002400   -12.0125700   95.8626800    -19.5610600   121.9901000   -4.1058680    86.1852600    
16325000000   -2.0826180    -30.2225700   -11.9782600   93.6270500    -19.5242000   119.7418000   -4.1407360    84.0340800    
16350000000   -2.0753290    -32.1127700   -11.9296100   91.2910300    -19.4737800   117.5329000   -4.1716740    82.0115100    
16375000000   -2.0443330    -33.9711900   -11.8513600   89.0051600    -19.4013500   115.3150000   -4.2157070    80.1807600    
16400000000   -2.0253990    -35.6924200   -11.7579200   86.6149800    -19.3116000   113.0830000   -4.2589690    78.4113500    
16425000000   -2.0253830    -37.4692900   -11.6930900   84.0136100    -19.2297200   110.7030000   -4.3237110    76.6238900    
16450000000   -2.0297170    -39.3512600   -11.5889500   81.3846600    -19.1225600   108.2901000   -4.3628250    74.9731600    
16475000000   -2.0354120    -41.4178100   -11.4832200   78.5395100    -19.0016800   105.6943000   -4.3732660    73.4890300    
16500000000   -2.0222410    -43.4386900   -11.4077100   75.5084800    -18.9030300   102.9833000   -4.3995170    72.1166600    
16525000000   -2.0050920    -45.3378700   -11.3318900   72.3950600    -18.8037800   100.1340000   -4.4283700    70.7697400    
16550000000   -2.0148800    -47.0556200   -11.2766000   69.1627500    -18.7150100   97.2292500    -4.4360210    69.4047400    
16575000000   -2.0374720    -48.9329500   -11.2437500   65.7563200    -18.6374500   94.1329800    -4.4323230    68.1117400    
16600000000   -2.0554410    -50.9864400   -11.2492700   62.2398500    -18.5785400   90.9395400    -4.4253900    66.9373300    
16625000000   -2.0589560    -53.0923000   -11.2830100   58.6711600    -18.5491200   87.6184700    -4.4077320    65.7768500    
16650000000   -2.0572050    -54.8867500   -11.3839900   55.2685000    -18.5749500   84.3439300    -4.3927140    64.5280700    
16675000000   -2.0644690    -56.6214000   -11.5430700   52.0712000    -18.6442900   81.1520400    -4.3438430    63.3042600    
16700000000   -2.0798810    -58.4675000   -11.7113600   49.2773600    -18.7439800   78.2738500    -4.2575650    62.1916900    
16725000000   -2.0842910    -60.6641400   -11.8839600   46.9376800    -18.8500900   75.6731300    -4.1472670    61.0323100    
16750000000   -2.0590690    -62.8785800   -12.0249300   45.0925000    -18.9562200   73.4561500    -4.0550110    59.5729500    
16775000000   -2.0485380    -65.1048200   -12.0991500   43.4705100    -19.0290000   71.5780500    -3.9531440    57.8676800    
16800000000   -2.0539540    -67.2221500   -12.0975700   41.9524500    -19.0362500   69.7856000    -3.8470570    56.0960300    
16825000000   -2.0834240    -69.4753200   -12.0414600   40.0377200    -19.0004200   67.8582200    -3.7789610    54.3250300    
16850000000   -2.1118580    -71.8889000   -11.9585600   37.7679100    -18.9453000   65.6464400    -3.7531450    52.4950000    
16875000000   -2.1442700    -74.2531900   -11.8890800   35.3813800    -18.8821400   63.3463600    -3.7333510    50.5875000    
16900000000   -2.1937300    -76.6368000   -11.8383500   32.7543400    -18.8478200   60.8613100    -3.7132170    48.7026900    
16925000000   -2.2449850    -78.9576500   -11.8203500   30.1622200    -18.8239500   58.3677300    -3.6955810    47.1231200    
16950000000   -2.3054620    -81.3576400   -11.7918400   27.4449400    -18.8003100   55.8548000    -3.6870680    45.7432700    
16975000000   -2.3661730    -83.7491600   -11.7904500   24.7400000    -18.7967100   53.3354600    -3.7090540    44.2816800    
17000000000   -2.4403230    -86.1748100   -11.8022200   22.0807300    -18.8091200   50.9373700    -3.7101460    42.7979600    
17025000000   -2.5206620    -88.7054000   -11.8129900   19.5817300    -18.8144000   48.6350700    -3.6587030    41.4532600    
17050000000   -2.6011260    -91.2502200   -11.8099900   17.0802400    -18.8220000   46.4415600    -3.6018190    40.2708300    
17075000000   -2.6814440    -93.7698500   -11.8181100   14.6880100    -18.8073600   44.3074200    -3.5508160    39.1332000    
17100000000   -2.7693570    -96.2032900   -11.7872400   12.3215500    -18.7754900   42.2346500    -3.5004320    37.7968200    
17125000000   -2.8904320    -98.7578000   -11.7595000   9.8538150     -18.7357400   40.0628700    -3.4348560    36.3012300    
17150000000   -3.0140970    -101.4094000  -11.7136000   7.5016160     -18.6647200   37.8966400    -3.3452290    34.8236600    
17175000000   -3.1356140    -104.2660000  -11.6623200   4.8660950     -18.6031500   35.5526700    -3.2638690    33.3304200    
17200000000   -3.2407520    -106.9404000  -11.6203600   2.2248900     -18.5355500   33.1693100    -3.2081090    31.7991300    
17225000000   -3.3841850    -109.4998000  -11.5752600   -0.4495517    -18.4705100   30.8074600    -3.1538850    30.1820100    
17250000000   -3.5485050    -112.2383000  -11.5164800   -3.1785470    -18.3985200   28.2718200    -3.0980270    28.5032400    
17275000000   -3.7276930    -115.1766000  -11.4691500   -6.0252090    -18.3287500   25.7153400    -3.0394370    26.8429800    
17300000000   -3.8758540    -118.2753000  -11.4385100   -8.9717820    -18.2661500   23.0369400    -2.9854700    25.1807300    
17325000000   -4.0240580    -121.1081000  -11.4055300   -11.8052300   -18.2172400   20.3592500    -2.9381620    23.5383300    
17350000000   -4.2163210    -123.8641000  -11.3708500   -14.6536400   -18.1625700   17.6458700    -2.8913120    21.9511200    
17375000000   -4.4451090    -126.8687000  -11.3273500   -17.6349900   -18.1068600   14.8998600    -2.8452350    20.3655900    
17400000000   -4.6645080    -130.0523000  -11.2959000   -20.6644200   -18.0629200   12.0769500    -2.8087230    18.7110900    
17425000000   -4.8778260    -133.3010000  -11.2926600   -23.7960800   -18.0389400   9.1749980     -2.7710470    17.0160100    
17450000000   -5.1138740    -136.2790000  -11.2832000   -26.8101600   -18.0224500   6.3029390     -2.7320390    15.3663300    
17475000000   -5.3957570    -139.5018000  -11.2746500   -29.8873300   -18.0093300   3.4373910     -2.6894050    13.8736500    
17500000000   -5.6932190    -143.0366000  -11.2633400   -33.1522300   -17.9858700   0.4824821     -2.6504140    12.3224500    
17525000000   -5.9785090    -146.6879000  -11.2818900   -36.3173300   -17.9991600   -2.5968930    -2.6317980    10.5718100    
17550000000   -6.2699490    -150.0737000  -11.2975000   -39.5530400   -18.0169100   -5.5561830    -2.5970930    8.8411040     
17575000000   -6.6217580    -153.3373000  -11.3331800   -42.7293200   -18.0486100   -8.5370740    -2.5592840    7.1613890     
17600000000   -7.0331710    -157.0466000  -11.3686600   -45.9763200   -18.0888700   -11.5149700   -2.5195650    5.5681950     
17625000000   -7.4530630    -161.1154000  -11.4066800   -49.1806400   -18.1456400   -14.5325600   -2.4868740    3.8927430     
17650000000   -7.8368350    -165.1861000  -11.4851000   -52.5168000   -18.2199300   -17.5607100   -2.4541080    2.1035830     
17675000000   -8.2573080    -168.9481000  -11.5624900   -55.7682800   -18.3255400   -20.5761100   -2.4194620    0.3434315     
17700000000   -8.7856610    -172.7369000  -11.6571600   -58.8048100   -18.4402300   -23.3790400   -2.3827190    -1.2558440    
17725000000   -9.3861150    -177.0943000  -11.7547600   -61.9340700   -18.5686800   -26.1846700   -2.3570680    -2.8574260    
17750000000   -9.9705400    178.0886000   -11.8872900   -65.1731700   -18.7283800   -28.9783600   -2.3502180    -4.6157560    
17775000000   -10.5423100   173.4029000   -12.0306100   -68.3039200   -18.9140200   -31.6154700   -2.3446120    -6.4153260    
17800000000   -11.1730800   169.0076000   -12.1826300   -71.1145300   -19.1067000   -33.9578600   -2.3307940    -8.1329680    
17825000000   -11.9534400   164.4917000   -12.3467100   -73.8797500   -19.3173800   -36.0618700   -2.3197960    -9.8165210    
17850000000   -12.8019200   159.1547000   -12.5130200   -76.5589000   -19.5381600   -37.9806000   -2.3214690    -11.5325000   
17875000000   -13.6138800   153.3828000   -12.6866600   -79.0241300   -19.7732600   -39.6555400   -2.3385060    -13.3099100   
17900000000   -14.4591700   147.8915000   -12.8918100   -81.1861400   -19.9929600   -40.8210000   -2.3578490    -15.0159400   
17925000000   -15.4430300   142.3910000   -13.0356200   -83.2103500   -20.1777200   -41.6074000   -2.3765970    -16.8156400   
17950000000   -16.5704300   136.1089000   -13.2028500   -84.9073500   -20.3260700   -42.0060100   -2.4040320    -18.6180700   
17975000000   -17.6456800   128.4347000   -13.3152400   -86.3027200   -20.4005000   -42.0689400   -2.4268310    -20.2895100   
18000000000   -18.5793700   120.3201000   -13.3823000   -87.7138100   -20.3781500   -42.0602300   -2.4674510    -21.9207500   
18025000000   -19.4047200   112.5195000   -13.3704500   -88.8001900   -20.2573800   -42.0295000   -2.5154350    -23.3417300   
18050000000   -20.2819000   103.8249000   -13.3093700   -90.1849000   -20.0304600   -42.4169600   -2.5528760    -24.7999100   
18075000000   -21.0869300   93.1428000    -13.1776100   -92.0309900   -19.7568200   -43.5248200   -2.5938740    -26.2548000   
18100000000   -21.3961700   80.0531500    -13.0481400   -94.0723900   -19.4727700   -45.1552500   -2.6258230    -27.4068200   
18125000000   -21.3199900   67.7048500    -12.8982300   -96.5540800   -19.2084900   -47.3688600   -2.6577770    -28.4609500   
18150000000   -21.0430000   55.6800500    -12.7878100   -99.4660400   -19.0041500   -49.9585200   -2.6885080    -29.6734000   
18175000000   -20.7228200   43.6977900    -12.7129900   -102.5135000  -18.8572000   -52.6849900   -2.6912510    -30.9809500   
18200000000   -20.3279700   32.1342400    -12.6702100   -105.6308000  -18.7612700   -55.2719100   -2.6670970    -32.2919300   
18225000000   -19.8220100   22.3200300    -12.6655800   -108.4011000  -18.6916900   -57.6707600   -2.6502680    -33.5370800   
18250000000   -19.3678400   15.0424800    -12.6366500   -111.1813000  -18.6032800   -59.7654700   -2.6436680    -34.7260300   
18275000000   -19.0484400   9.8933920     -12.5879400   -113.7753000  -18.4747000   -61.8189100   -2.6364840    -36.0950200   
18300000000   -18.7184400   6.0045550     -12.5005000   -116.6740000  -18.3032500   -63.9759400   -2.6164930    -37.4895700   
18325000000   -18.1902900   3.0388070     -12.4220700   -119.6186000  -18.1134400   -66.4172700   -2.5938720    -38.7524800   
18350000000   -17.4686400   0.9313871     -12.3220000   -122.8350000  -17.9218600   -69.1546500   -2.5868580    -39.9174900   
18375000000   -16.6100600   -0.8699046    -12.2323300   -126.2526000  -17.7408600   -72.1760700   -2.5841470    -41.1850500   
18400000000   -15.7564100   -3.1075340    -12.1876600   -129.9893000  -17.5866900   -75.4915500   -2.5665070    -42.6822700   
18425000000   -14.9271200   -5.9832100    -12.1646400   -133.8163000  -17.4716500   -78.8982200   -2.5274830    -44.1266400   
18450000000   -14.1748800   -9.4788210    -12.1748700   -137.6969000  -17.3961700   -82.3828800   -2.4985660    -45.3732800   
18475000000   -13.4507000   -13.2027800   -12.2125500   -141.4855000  -17.3444200   -85.7999400   -2.4910380    -46.4710800   
18500000000   -12.7913300   -17.0483900   -12.2633500   -145.2188000  -17.3120800   -89.2098300   -2.4922970    -47.7213500   
18525000000   -12.2188700   -20.8943300   -12.3177000   -149.0601000  -17.2951900   -92.6831400   -2.4737110    -49.1915400   
18550000000   -11.7147700   -24.8817400   -12.4018000   -152.8302000  -17.3080600   -96.1866500   -2.4415560    -50.6380400   
18575000000   -11.2530900   -28.8140000   -12.5052200   -156.5207000  -17.3493900   -99.5267600   -2.4122100    -51.8072600   
18600000000   -10.8354300   -32.7375200   -12.6004400   -160.2506000  -17.3998700   -102.8688000  -2.3926150    -53.0049100   
18625000000   -10.4782900   -36.4413000   -12.7017600   -164.0068000  -17.4694700   -106.2086000  -2.3753040    -54.4310000   
18650000000   -10.1861600   -40.1280000   -12.8502600   -168.0251000  -17.5622900   -109.5157000  -2.3409700    -56.0110200   
18675000000   -9.9675340    -43.9184600   -12.9812700   -171.8416000  -17.6852700   -112.6956000  -2.2933190    -57.5141500   
18700000000   -9.7676990    -47.8649900   -13.1497500   -175.7355000  -17.8352700   -115.6981000  -2.2496120    -58.8468400   
18725000000   -9.6062770    -51.7082600   -13.3455100   -179.5451000  -17.9985400   -118.4859000  -2.2182250    -60.1472300   
18750000000   -9.5030010    -55.3371700   -13.5517300   176.5504000   -18.1703100   -121.1612000  -2.1812220    -61.6605500   
18775000000   -9.4664420    -58.9582100   -13.8127700   172.4111000   -18.3592300   -123.6893000  -2.1504990    -63.3933800   
18800000000   -9.5060110    -62.6428900   -14.1071300   168.4397000   -18.5735300   -125.8136000  -2.1195520    -64.9388800   
18825000000   -9.5676160    -66.3347200   -14.4747300   164.5431000   -18.7765600   -127.6049000  -2.0883970    -66.4949000   
18850000000   -9.7052420    -69.6025700   -14.8637400   160.7239000   -18.9689000   -129.1373000  -2.0740650    -68.1914100   
18875000000   -9.9626720    -72.4316300   -15.3176900   157.0045000   -19.1400600   -130.1693000  -2.0582970    -69.9187700   
18900000000   -10.3585100   -75.0723100   -15.8780900   153.8337000   -19.2611600   -130.8412000  -2.0368480    -71.6021100   
18925000000   -10.8257000   -77.5308200   -16.5370800   150.9960000   -19.3108300   -131.1189000  -2.0217680    -73.0615100   
18950000000   -11.3457100   -79.0193400   -17.2305900   149.0347000   -19.2583900   -131.2101000  -2.0271780    -74.5043200   
18975000000   -11.8689700   -78.3465000   -18.0116400   148.3820000   -19.0897500   -131.3845000  -2.0567020    -76.1814700   
19000000000   -12.4603900   -75.1158400   -18.7693800   149.2757000   -18.8249900   -131.8689000  -2.0853410    -77.9633100   
19025000000   -13.0181500   -69.7686900   -19.4352000   151.8445000   -18.4771700   -132.8540000  -2.0902490    -79.5554000   
19050000000   -13.2738100   -63.6163900   -19.8087000   156.3193000   -18.0685000   -134.4940000  -2.0973980    -80.7190500   
19075000000   -13.0119800   -57.9158300   -19.7720200   160.8250000   -17.6331400   -136.9417000  -2.1297310    -81.7305100   
19100000000   -12.2357300   -53.5086100   -19.3291300   164.8802000   -17.2205500   -140.1703000  -2.1955870    -83.0024600   
19125000000   -11.2248500   -50.9936400   -18.7094700   166.7775000   -16.8686400   -143.9299000  -2.2507280    -84.5517100   
19150000000   -10.2319300   -50.0921900   -18.0082700   166.7789000   -16.5881800   -148.1044000  -2.2684190    -86.0927600   
19175000000   -9.3447970    -50.9263600   -17.3505100   165.3351000   -16.3672400   -152.3754000  -2.2661440    -87.2823000   
19200000000   -8.5526200    -52.9170800   -16.7428400   162.8557000   -16.1974600   -156.8198000  -2.2694640    -88.4563200   
19225000000   -7.8352850    -55.4781800   -16.2224900   159.6348000   -16.0872100   -161.3300000  -2.2887220    -89.8405400   
19250000000   -7.2585050    -57.9168100   -15.8049500   155.8578000   -16.0377700   -165.7689000  -2.2831730    -91.4061300   
19275000000   -6.8207590    -60.4694500   -15.4807200   152.0434000   -16.0269900   -169.9993000  -2.2473030    -92.7074600   
19300000000   -6.5107190    -63.5567700   -15.2227100   148.0557000   -16.0272300   -174.0995000  -2.2018260    -93.5549200   
19325000000   -6.2387470    -67.0228100   -14.9784700   143.9243000   -16.0359100   -178.1871000  -2.1968900    -94.3546400   
19350000000   -5.9713400    -70.6497500   -14.8023100   139.7325000   -16.0668700   177.7321000   -2.2337800    -95.5081000   
19375000000   -5.7096930    -73.9913300   -14.6541700   135.3510000   -16.1233900   173.6315000   -2.2530110    -97.2103000   
19400000000   -5.4848140    -76.9053600   -14.5764900   131.0581000   -16.2052500   169.6927000   -2.2318320    -98.9884900   
19425000000   -5.3119110    -79.6077100   -14.5139200   127.1249000   -16.2991300   166.0033000   -2.1812830    -100.3521000  
19450000000   -5.1786850    -82.1598400   -14.4562200   122.9922000   -16.3840800   162.3971000   -2.1467560    -101.3739000  
19475000000   -5.0729120    -84.7784400   -14.4128500   119.0909000   -16.4735400   158.8275000   -2.1586690    -102.4711000  
19500000000   -4.9911600    -87.3259700   -14.4174700   114.9157000   -16.5689600   155.2806000   -2.1768240    -103.9048000  
19525000000   -4.9135850    -89.8211100   -14.3977700   111.0606000   -16.6674500   151.6774000   -2.1653490    -105.6020000  
19550000000   -4.8495240    -92.1332500   -14.4169500   106.8902000   -16.7803600   148.2081000   -2.1307220    -107.0963000  
19575000000   -4.7959730    -94.4279600   -14.4331900   103.0367000   -16.8911600   144.8227000   -2.1064880    -108.2401000  
19600000000   -4.7656150    -96.7341300   -14.4666300   99.1420200    -17.0038600   141.5372000   -2.1186280    -109.2886000  
19625000000   -4.7481940    -99.0895500   -14.4949800   95.2574700    -17.1035900   138.2238000   -2.1304830    -110.6107000  
19650000000   -4.7254160    -101.3807000  -14.5507000   91.1931200    -17.2151900   134.8350000   -2.1226060    -112.2446000  
19675000000   -4.7007960    -103.5853000  -14.5984600   87.0213700    -17.3465700   131.5326000   -2.0986970    -113.7065000  
19700000000   -4.7064810    -105.7904000  -14.6747400   82.9753600    -17.4728300   128.3004000   -2.0796990    -114.8732000  
19725000000   -4.7259230    -108.0153000  -14.7707700   78.9753000    -17.6033100   125.1684000   -2.0868520    -115.9768000  
19750000000   -4.7525430    -110.2661000  -14.8917600   74.8736300    -17.7436000   122.0581000   -2.1077550    -117.3374000  
19775000000   -4.7674950    -112.4942000  -15.0141500   70.7347600    -17.8856900   118.9548000   -2.1093750    -118.8623000  
19800000000   -4.8125880    -114.5418000  -15.1670700   66.2350400    -18.0299400   115.9464000   -2.0898120    -120.3278000  
19825000000   -4.9003730    -116.6088000  -15.3909600   61.9816100    -18.1907000   113.0897000   -2.0890960    -121.6068000  
19850000000   -5.0353110    -118.8964000  -15.6450500   57.9514000    -18.3451800   110.3657000   -2.0949240    -122.8772000  
19875000000   -5.2115290    -121.1589000  -15.9816000   53.6264000    -18.4947800   107.8103000   -2.0884890    -124.3804000  
19900000000   -5.4444710    -123.2622000  -16.4080300   49.7982800    -18.6439200   105.4371000   -2.0703100    -125.8909000  
19925000000   -5.7405980    -124.9073000  -16.9718700   46.5485900    -18.7540600   103.3672000   -2.0471600    -127.1815000  
19950000000   -6.1219070    -125.8922000  -17.5824600   44.8021100    -18.8084200   101.5065000   -2.0319260    -128.3424000  
19975000000   -6.5048260    -125.8382000  -18.1633500   44.7541500    -18.7934400   99.5550100    -2.0245140    -129.6208000  
20000000000   -6.7670490    -124.7569000  -18.4511500   46.3449100    -18.7232300   97.2487600    -2.0062910    -131.0417000  
