!Mini-Circuits Laboratory
!S-Parameters
!Model: ZX60-33LNR-S+
!Run / Lot / Date Code: E181103 / N/A / N/A
!Fixture: N/A, Pressing Arm: N/A
!Network Analyzer: PNA-X N5242A - 423 4 ports;  Serial number: 74302
!Date: 11/9/2018 at 2:35:35 PM
!S/N: Unit# 4
!Volage and Current limited to 5V and 150mA
# Hz  S  dB  R  50
!Frequency    S11 dB        S11 Deg       S21 dB        S21 Deg       S12 dB        S12 Deg       S22 dB        S22 Deg       
10000000      -7.2144680    -8.2342620    24.7642200    -167.9197000  -39.5948100   79.4258800    -16.5826100   38.5031400    
15000000      -7.3837620    -10.1289400   24.8585300    -173.5190000  -36.8555000   64.7207100    -18.9001900   -5.6191640    
20000000      -7.6348390    -11.3536300   24.8729300    -177.3830000  -35.3172100   53.7817400    -20.2882800   -36.9851700   
25000000      -7.8123020    -12.6527100   24.8603200    -179.9448000  -34.3825400   46.0234500    -20.8250700   -62.5830100   
30000000      -7.8734690    -13.7867900   24.8375700    178.2858000   -33.7778500   40.1094000    -20.8143500   -80.7634000   
35000000      -7.9118730    -14.9359800   24.8174300    176.7101000   -33.3783100   35.5365600    -20.8101400   -94.4679600   
40000000      -7.9597820    -16.2324500   24.8045800    175.2391000   -33.0872200   31.7751900    -20.7736500   -105.7375000  
45000000      -7.9689950    -17.5729800   24.7928300    173.8986000   -32.8693400   28.7033200    -20.7328000   -114.6087000  
50000000      -7.9330480    -18.3366300   24.7897000    172.5739000   -32.6726300   26.4667600    -20.8709900   -122.1698000  
55000000      -7.9617180    -20.4145400   24.7768400    171.4679000   -32.5767900   24.0657400    -20.6510900   -127.9299000  
60000000      -7.9468100    -21.9321600   24.7669800    170.3099000   -32.4769500   22.2601900    -20.6265400   -133.0802000  
65000000      -7.9427950    -23.4667500   24.7573300    169.1779000   -32.3929500   20.7083700    -20.5969900   -137.6435000  
70000000      -7.9309730    -25.0447000   24.7446900    168.0593000   -32.3248900   19.3816500    -20.5783200   -141.6897000  
75000000      -7.9254400    -26.6593100   24.7334200    166.9534000   -32.2630000   18.1912500    -20.5372800   -145.3263000  
80000000      -7.9110920    -28.1919800   24.7192000    165.8930000   -32.2129900   17.1656500    -20.5339400   -148.4830000  
85000000      -7.8894000    -29.8113300   24.7067400    164.8207000   -32.1659500   16.2428000    -20.5364600   -151.3081000  
90000000      -7.8723000    -31.4181900   24.6926600    163.7703000   -32.1251100   15.4474900    -20.5265100   -153.8248000  
95000000      -7.8627430    -33.0039500   24.6787000    162.7306000   -32.0866100   14.6874900    -20.5301200   -156.2617000  
100000000     -7.8483510    -34.6357400   24.6652600    161.6929000   -32.0549700   14.0198700    -20.5250900   -158.4001000  
105000000     -7.8332620    -36.1813200   24.6465300    160.6712000   -32.0198500   13.4043900    -20.5398500   -160.5425000  
110000000     -7.8130070    -37.8079900   24.6332200    159.6665000   -31.9872500   12.8492200    -20.5412100   -162.2168000  
115000000     -7.8026370    -39.3803500   24.6130500    158.6552000   -31.9614000   12.3350900    -20.5460300   -164.2073000  
120000000     -7.7890600    -40.9976700   24.5926300    157.6474000   -31.9314200   11.8957600    -20.5556600   -165.8963000  
125000000     -7.7636410    -42.5174800   24.5756100    156.6883000   -31.9038400   11.4313300    -20.5728100   -167.5409000  
130000000     -7.7446530    -44.0618600   24.5558600    155.6815000   -31.8789100   11.0355500    -20.5816900   -169.1289000  
135000000     -7.7390230    -45.6414300   24.5345500    154.7025000   -31.8561900   10.6626000    -20.6039500   -170.5595000  
140000000     -7.7119680    -47.1870400   24.5160100    153.7372000   -31.8245000   10.3002400    -20.6079300   -171.8191000  
145000000     -7.7065830    -48.7672700   24.4956100    152.7723000   -31.8026500   9.9887220     -20.6273300   -173.2803000  
150000000     -7.6804700    -50.2510100   24.4726200    151.7998000   -31.7805400   9.6950860     -20.6479500   -174.5481000  
155000000     -7.6664220    -51.8394900   24.4518200    150.8527000   -31.7535500   9.4113610     -20.6677400   -175.7838000  
160000000     -7.6537710    -53.3547800   24.4280200    149.8809000   -31.7287000   9.1302470     -20.6741600   -177.0284000  
165000000     -7.6375220    -54.8312500   24.4048900    148.9425000   -31.7049400   8.8480110     -20.7005000   -178.2061000  
170000000     -7.6207700    -56.3268700   24.3796600    147.9942000   -31.6792900   8.5991430     -20.7314600   -179.4034000  
175000000     -7.5980050    -57.8028700   24.3566100    147.0575000   -31.6542500   8.3650580     -20.7645900   179.5812000   
180000000     -7.5837690    -59.2574300   24.3308200    146.1298000   -31.6276100   8.1224590     -20.7885300   178.5482000   
185000000     -7.5624700    -60.7455300   24.3062700    145.1857000   -31.6019100   7.9124570     -20.8125800   177.5649000   
190000000     -7.5512600    -62.1841900   24.2790600    144.2605000   -31.5774200   7.7185080     -20.8439200   176.5528000   
195000000     -7.5295510    -63.6194500   24.2524900    143.3348000   -31.5505400   7.5033040     -20.8798900   175.5983000   
200000000     -7.5153290    -65.0868800   24.2245900    142.4179000   -31.5249300   7.2962960     -20.8924400   174.6811000   
205000000     -7.4931320    -66.4535200   24.1980400    141.5086000   -31.5001700   7.0925390     -20.9384400   173.8174000   
210000000     -7.4767000    -67.8730900   24.1696900    140.5914000   -31.4751400   6.9137960     -20.9719900   172.9552000   
215000000     -7.4555090    -69.2859900   24.1432900    139.6855000   -31.4442100   6.7332340     -21.0124800   172.1804000   
220000000     -7.4416170    -70.6342000   24.1147400    138.7905000   -31.4191700   6.5520170     -21.0541700   171.3214000   
225000000     -7.4220670    -72.0305600   24.0868300    137.8788000   -31.3940000   6.3760130     -21.0777500   170.5142000   
230000000     -7.4061190    -73.3553100   24.0577900    136.9973000   -31.3634700   6.1854820     -21.1299900   169.6909000   
235000000     -7.3851830    -74.7778300   24.0282300    136.0922000   -31.3377400   6.0064660     -21.1556000   168.9506000   
240000000     -7.3696990    -76.0928600   23.9982400    135.2048000   -31.3076500   5.8482240     -21.1907800   168.1515000   
245000000     -7.3487360    -77.4468200   23.9689800    134.3151000   -31.2802900   5.6657150     -21.2224800   167.3409000   
250000000     -7.3306240    -78.8188600   23.9373100    133.4243000   -31.2483600   5.5091130     -21.2628800   166.6238000   
255000000     -7.3202990    -80.0664900   23.9072100    132.5597000   -31.2200400   5.3342690     -21.3187800   165.8037000   
260000000     -7.2927130    -81.3736600   23.8774000    131.6731000   -31.1920700   5.1661100     -21.3600500   165.0617000   
265000000     -7.2739770    -82.6853800   23.8476000    130.7951000   -31.1637300   5.0092240     -21.4013500   164.3784000   
270000000     -7.2594200    -83.9719500   23.8153800    129.9318000   -31.1339300   4.8328460     -21.4484700   163.6079000   
275000000     -7.2475970    -85.2624300   23.7827500    129.0610000   -31.1057800   4.6685270     -21.4860900   162.9471000   
280000000     -7.2245690    -86.5183100   23.7504400    128.2092000   -31.0734000   4.5047320     -21.5388800   162.2583000   
285000000     -7.2105710    -87.7915900   23.7164100    127.3513000   -31.0439300   4.3335980     -21.5862700   161.5760000   
290000000     -7.1913080    -89.0563300   23.6848300    126.4942000   -31.0133300   4.1739420     -21.6208200   160.9726000   
295000000     -7.1721800    -90.2626700   23.6523900    125.6400000   -30.9817700   4.0044850     -21.6705400   160.3101000   
300000000     -7.1544970    -91.4625400   23.6203200    124.8000000   -30.9481700   3.8546080     -21.7222100   159.8008000   
305000000     -7.1408970    -92.6733800   23.5862800    123.9540000   -30.9208400   3.6795870     -21.7764900   159.1120000   
310000000     -7.1170150    -93.8692600   23.5541700    123.1167000   -30.8890200   3.5228980     -21.8292000   158.6078000   
315000000     -7.1023980    -95.0438600   23.5195500    122.2868000   -30.8600400   3.3446730     -21.8764000   157.9873000   
320000000     -7.0873040    -96.2225300   23.4865900    121.4616000   -30.8280400   3.1806110     -21.9293800   157.3952000   
325000000     -7.0702760    -97.3857300   23.4525200    120.6257000   -30.7947300   3.0197300     -21.9738700   156.8368000   
330000000     -7.0503330    -98.5728300   23.4180600    119.7897000   -30.7646400   2.8429080     -22.0268800   156.2632000   
335000000     -7.0335010    -99.7211500   23.3836200    118.9611000   -30.7330000   2.6809570     -22.0777800   155.7574000   
340000000     -7.0200570    -100.8545000  23.3490100    118.1485000   -30.7011600   2.4971730     -22.1411500   155.1599000   
345000000     -7.0004420    -101.9756000  23.3161900    117.3288000   -30.6696700   2.3333710     -22.2137900   154.6809000   
350000000     -6.9876260    -103.1122000  23.2811500    116.4936000   -30.6416200   2.1401020     -22.2372200   154.1399000   
355000000     -6.9694890    -104.2277000  23.2450800    115.6915000   -30.6063500   1.9719590     -22.3100200   153.5855000   
360000000     -6.9522050    -105.3405000  23.2107400    114.8877000   -30.5737200   1.8022390     -22.3698200   153.0979000   
365000000     -6.9432030    -106.4685000  23.1755900    114.0803000   -30.5432500   1.6061980     -22.4214400   152.5031000   
370000000     -6.9304750    -107.5807000  23.1383600    113.2691000   -30.5106300   1.4265460     -22.4691000   151.9667000   
375000000     -6.9184990    -108.6256000  23.1031200    112.4673000   -30.4782400   1.2544190     -22.5230700   151.4054000   
380000000     -6.8949930    -109.6846000  23.0687100    111.6657000   -30.4453600   1.0709220     -22.5791500   150.9112000   
385000000     -6.8859740    -110.7498000  23.0319200    110.8732000   -30.4135200   0.8849477     -22.6380900   150.3077000   
390000000     -6.8672100    -111.7915000  22.9977000    110.0714000   -30.3834100   0.7038722     -22.6932300   149.8279000   
395000000     -6.8567200    -112.8300000  22.9603000    109.2850000   -30.3506100   0.5144865     -22.7488100   149.2321000   
400000000     -6.8457280    -113.8883000  22.9239100    108.4903000   -30.3170200   0.3348840     -22.8086300   148.8076000   
405000000     -6.8316090    -114.9128000  22.8873200    107.7132000   -30.2852700   0.1444273     -22.8767500   148.2437000   
410000000     -6.8197800    -115.9600000  22.8497000    106.9255000   -30.2524600   -0.0519177    -22.9150400   147.8271000   
415000000     -6.8049960    -116.9840000  22.8125200    106.1516000   -30.2203000   -0.2341620    -22.9868300   147.2902000   
420000000     -6.7966000    -117.9606000  22.7764000    105.3735000   -30.1875300   -0.4307481    -23.0566300   146.8002000   
425000000     -6.7852980    -118.9368000  22.7405700    104.6018000   -30.1536600   -0.6300120    -23.1221500   146.4653000   
430000000     -6.7730980    -119.9194000  22.7048100    103.8320000   -30.1212800   -0.8190376    -23.1993800   146.0537000   
435000000     -6.7615770    -120.8859000  22.6684900    103.0598000   -30.0890400   -1.0186990    -23.2635500   145.6314000   
440000000     -6.7527230    -121.8584000  22.6298500    102.3006000   -30.0573800   -1.2190130    -23.3355000   145.2533000   
445000000     -6.7434690    -122.8198000  22.5924300    101.5364000   -30.0243400   -1.4262780    -23.3989200   144.8743000   
450000000     -6.7330400    -123.7660000  22.5532200    100.7759000   -29.9934100   -1.6134770    -23.4724100   144.4831000   
455000000     -6.7222530    -124.7400000  22.5165700    100.0203000   -29.9600200   -1.8313080    -23.5407100   144.1260000   
460000000     -6.7176130    -125.6285000  22.4785700    99.2723100    -29.9299000   -2.0477360    -23.6130100   143.7002000   
465000000     -6.7083630    -126.6016000  22.4409000    98.5137300    -29.8949000   -2.2469990    -23.6887900   143.3797000   
470000000     -6.7033060    -127.5139000  22.4035800    97.7712500    -29.8636400   -2.4597030    -23.7626200   143.0297000   
475000000     -6.6925040    -128.4278000  22.3667900    97.0194500    -29.8300400   -2.6622460    -23.8467000   142.7444000   
480000000     -6.6837160    -129.3374000  22.3289100    96.2767800    -29.7987100   -2.8784180    -23.9260600   142.3477000   
485000000     -6.6713380    -130.2504000  22.2913400    95.5358400    -29.7662500   -3.0899040    -24.0050700   142.0482000   
490000000     -6.6693080    -131.1561000  22.2522400    94.7996900    -29.7347700   -3.3099700    -24.0744400   141.6165000   
495000000     -6.6569700    -132.0587000  22.2143800    94.0578500    -29.7024100   -3.5186410    -24.1553800   141.3552000   
500000000     -6.6524640    -132.9368000  22.1768100    93.3347800    -29.6705500   -3.7452340    -24.2397300   141.0194000   
525000000     -6.6043500    -137.2300000  21.9873600    89.7141600    -29.5116600   -4.8294870    -24.6507100   139.5871000   
550000000     -6.5767820    -141.3722000  21.8003000    86.1437600    -29.3531100   -5.9836770    -25.0497000   138.0976000   
575000000     -6.5394120    -145.4684000  21.6100300    82.6663900    -29.1860400   -7.1396090    -25.5298000   137.1784000   
600000000     -6.5162720    -149.2080000  21.4288700    79.2118100    -29.0280900   -8.3166120    -25.9714700   136.0736000   
625000000     -6.4847010    -152.9660000  21.2431800    75.8074700    -28.8666200   -9.5490930    -26.4553200   135.2188000   
650000000     -6.4655990    -156.6620000  21.0608100    72.4264400    -28.7090300   -10.8018100   -26.9161900   134.7642000   
675000000     -6.4473490    -160.3510000  20.8776700    69.0750000    -28.5456800   -12.1182100   -27.4237200   134.6311000   
700000000     -6.4193190    -164.0701000  20.6868300    65.7543600    -28.3908300   -13.5304500   -27.9595900   134.1650000   
725000000     -6.4891370    -167.7633000  20.4753500    62.6076000    -28.2746000   -14.9282500   -28.9367700   133.6773000   
750000000     -6.5485090    -170.2860000  20.3290500    59.7560000    -28.1072200   -15.9299100   -29.6631400   139.1848000   
775000000     -6.5057900    -173.2774000  20.1772900    56.5173800    -27.9320000   -17.3834200   -29.9939600   141.2634000   
800000000     -6.4785110    -176.4767000  20.0097000    53.3119100    -27.7752700   -18.8696600   -30.4813900   143.5764000   
825000000     -6.4832980    -179.5531000  19.8407700    50.1649400    -27.6219300   -20.3270700   -30.9368400   146.2817000   
850000000     -6.4879360    177.4472000   19.6741000    47.0789500    -27.4714200   -21.8289400   -31.3866500   149.9385000   
875000000     -6.4914340    174.5310000   19.5049200    44.0475000    -27.3212600   -23.3545400   -31.7364300   154.1577000   
900000000     -6.5165350    171.6367000   19.3432700    41.0251100    -27.1775400   -24.9115900   -32.0622100   160.3747000   
925000000     -6.5252180    168.8538000   19.1805800    38.0300900    -27.0346100   -26.4452100   -32.2175800   166.1252000   
950000000     -6.5498930    166.0493000   19.0207500    35.0663300    -26.8961500   -28.0130900   -32.2015300   172.5465000   
975000000     -6.5611380    163.3590000   18.8614000    32.1076300    -26.7543600   -29.6156300   -31.9306200   178.1950000   
1000000000    -6.5837880    160.6443000   18.7036700    29.1842500    -26.6192200   -31.2182900   -31.6071400   -176.2877000  
1025000000    -6.6147860    158.0476000   18.5471900    26.2732600    -26.4895400   -32.8424600   -31.1929300   -171.2244000  
1050000000    -6.6366490    155.4298000   18.3906100    23.3709700    -26.3565900   -34.5048000   -30.6336700   -166.6680000  
1075000000    -6.6422100    152.8169000   18.2321300    20.4795200    -26.2313000   -36.1843100   -29.9392200   -162.4852000  
1100000000    -6.6695430    150.2618000   18.0749700    17.6146600    -26.1122800   -37.8577600   -29.0616200   -158.7182000  
1125000000    -6.6805040    147.5519000   17.9065000    14.7887400    -26.0023600   -39.5449000   -28.0448300   -155.5399000  
1150000000    -6.6982590    144.7371000   17.7254200    12.0756500    -25.9115700   -41.1382300   -26.7832000   -153.9003000  
1175000000    -6.7644310    141.6971000   17.5405800    9.6591820     -25.8194500   -42.4144100   -25.3844500   -156.3583000  
1200000000    -6.9352980    138.9261000   17.4265700    7.5262210     -25.6577300   -43.5184000   -24.5985300   -163.4104000  
1225000000    -7.0667520    136.9615000   17.3717500    4.9571180     -25.4471500   -45.1083000   -24.6533600   -168.4957000  
1250000000    -7.1437830    135.0340000   17.2879800    2.1043610     -25.2696800   -47.0146500   -24.7803900   -169.4900000  
1275000000    -7.1923780    132.9724000   17.1815900    -0.7967747    -25.1236900   -48.9403500   -24.6921500   -169.4945000  
1300000000    -7.2323780    130.8494000   17.0632300    -3.6501970    -24.9872400   -50.8352600   -24.4626700   -169.2125000  
1325000000    -7.2880060    128.6781000   16.9430600    -6.4353670    -24.8596500   -52.7389800   -24.1275800   -168.9911000  
1350000000    -7.3379340    126.4950000   16.8215800    -9.2182000    -24.7367500   -54.6265600   -23.7068700   -169.0729000  
1375000000    -7.3897970    124.3384000   16.6968600    -11.9753800   -24.6146700   -56.4957700   -23.3350000   -169.7597000  
1400000000    -7.4369540    122.1246000   16.5719500    -14.7035800   -24.4981800   -58.3398400   -22.9817100   -170.3947000  
1425000000    -7.4892820    120.0557000   16.4506100    -17.3860000   -24.3756800   -60.1831600   -22.5817000   -171.1860000  
1450000000    -7.5553780    117.9099000   16.3310900    -20.0944600   -24.2627800   -62.0342500   -22.2222600   -172.0993000  
1475000000    -7.6209760    115.7430000   16.2111300    -22.7312200   -24.1475000   -63.9120400   -21.8834200   -173.1444000  
1500000000    -7.6795490    113.6471000   16.0958400    -25.3878800   -24.0303100   -65.8264500   -21.5395700   -174.4577000  
1525000000    -7.7469000    111.4085000   15.9818300    -28.0451300   -23.9192300   -67.7352600   -21.2157800   -175.7305000  
1550000000    -7.8090830    109.3970000   15.8672700    -30.6695000   -23.8062000   -69.6007900   -20.9249600   -177.0023000  
1575000000    -7.8745880    107.3089000   15.7569700    -33.2971500   -23.6933200   -71.5085500   -20.6197100   -178.3444000  
1600000000    -7.9500550    105.2135000   15.6504200    -35.9474800   -23.5820400   -73.4290700   -20.2897400   -179.7246000  
1625000000    -8.0203240    103.0409000   15.5405200    -38.5471600   -23.4738600   -75.3603700   -20.0150100   178.7781000   
1650000000    -8.0788020    101.0050000   15.4360900    -41.1468200   -23.3642700   -77.2856800   -19.7539300   177.3621000   
1675000000    -8.1550400    98.8585300    15.3283500    -43.7454800   -23.2570800   -79.2826500   -19.4646600   175.7597000   
1700000000    -8.2435870    96.8111800    15.2245800    -46.3664900   -23.1569000   -81.2236000   -19.1986300   174.0215000   
1725000000    -8.3205580    94.6990400    15.1210600    -48.9517700   -23.0531600   -83.1707500   -18.9502700   172.5746000   
1750000000    -8.4015890    92.6023400    15.0201200    -51.4975700   -22.9506800   -85.1608500   -18.6717900   170.9731000   
1775000000    -8.4809200    90.4671000    14.9185700    -54.0900100   -22.8551600   -87.1201900   -18.4221700   169.2290000   
1800000000    -8.5825640    88.4468700    14.8193300    -56.6499400   -22.7594900   -89.0799000   -18.1686600   167.2595000   
1825000000    -8.6777050    86.3662600    14.7236000    -59.2034500   -22.6549000   -91.0300100   -17.9319900   165.3574000   
1850000000    -8.7747960    84.3173100    14.6263500    -61.7677000   -22.5587700   -93.0132300   -17.7326600   163.3819000   
1875000000    -8.8557830    82.3465300    14.5362600    -64.3182800   -22.4569100   -94.9806100   -17.5407100   161.4501000   
1900000000    -8.9428620    80.2095700    14.4438700    -66.8991200   -22.3566500   -97.0235700   -17.3732000   159.3980000   
1925000000    -9.0294800    78.2655800    14.3524000    -69.4572400   -22.2579200   -99.0187400   -17.1796900   157.4436000   
1950000000    -9.1161750    76.1077600    14.2616400    -72.0060000   -22.1644300   -101.0698000  -16.9970400   155.4840000   
1975000000    -9.2313490    74.1037100    14.1688200    -74.5826100   -22.0696400   -103.0864000  -16.8304300   153.5222000   
2000000000    -9.3279980    71.8727200    14.0794200    -77.1400600   -21.9782300   -105.1534000  -16.6524700   151.5631000   
2025000000    -9.4300340    69.9143400    13.9909100    -79.6835200   -21.8884400   -107.1896000  -16.5017700   149.5356000   
2050000000    -9.5247420    67.6691100    13.9015000    -82.2405700   -21.7958100   -109.2590000  -16.3442400   147.4274000   
2075000000    -9.6209660    65.7146600    13.8103100    -84.7890100   -21.7087700   -111.3113000  -16.2072000   145.3987000   
2100000000    -9.7075950    63.5664500    13.7214300    -87.3184400   -21.6216700   -113.3549000  -16.0703300   143.3915000   
2125000000    -9.8116550    61.3531600    13.6333700    -89.8519400   -21.5337500   -115.4603000  -15.9306500   141.4346000   
2150000000    -9.9157350    59.2970400    13.5421800    -92.4053700   -21.4491500   -117.5050000  -15.7984200   139.2602000   
2175000000    -10.0195300   57.0846300    13.4537800    -94.9116500   -21.3672200   -119.5765000  -15.6990000   137.1864000   
2200000000    -10.1223900   54.8532600    13.3679300    -97.4060100   -21.2842100   -121.6776000  -15.5781000   135.2890000   
2225000000    -10.2118600   52.6292600    13.2761600    -99.9189200   -21.2109200   -123.7848000  -15.4378700   132.9548000   
2250000000    -10.2953000   50.2980700    13.1843000    -102.3576000  -21.1373200   -125.8093000  -15.3458600   130.7134000   
2275000000    -10.3900000   47.8075300    13.0981300    -104.7732000  -21.0551100   -127.8438000  -15.2647600   128.6540000   
2300000000    -10.4854900   45.1674200    13.0149600    -107.1569000  -20.9874800   -129.8877000  -15.1710300   126.1657000   
2325000000    -10.5894200   42.5092000    12.9420400    -109.4497000  -20.9070700   -131.8484000  -15.1519400   123.8430000   
2350000000    -10.7494600   39.7205100    12.8838400    -111.8140000  -20.8157200   -133.8308000  -15.1376000   121.8545000   
2375000000    -10.9407100   37.1630600    12.8343700    -114.2589000  -20.7234700   -135.8838000  -15.1147100   119.6515000   
2400000000    -11.1185800   34.4575700    12.7801400    -116.7658000  -20.6284600   -137.9421000  -15.1053600   117.6150000   
2425000000    -11.3043200   31.9158500    12.7290700    -119.2912000  -20.5309000   -140.0449000  -15.0937000   115.9011000   
2450000000    -11.4747200   29.3095300    12.6759700    -121.8718000  -20.4442900   -142.2214000  -15.0497200   114.0970000   
2475000000    -11.6310600   26.7575800    12.6123500    -124.4201000  -20.3533800   -144.3665000  -15.0067500   112.1909000   
2500000000    -11.7855600   24.2744200    12.5512800    -126.9692000  -20.2632100   -146.5038000  -14.9781500   110.4719000   
2525000000    -11.9638000   21.5583100    12.4908300    -129.5521000  -20.1770400   -148.7423000  -14.9348600   108.5226000   
2550000000    -12.1535800   18.8426400    12.4263200    -132.1332000  -20.1009800   -150.9496000  -14.9017600   106.4166000   
2575000000    -12.3080000   15.9797700    12.3650600    -134.6839000  -20.0155500   -153.1621000  -14.8480300   104.4145000   
2600000000    -12.4745600   13.2175300    12.2967300    -137.2405000  -19.9403300   -155.3749000  -14.7979200   102.4076000   
2625000000    -12.6383600   10.2620100    12.2317200    -139.7807000  -19.8645100   -157.5696000  -14.7982900   100.4345000   
2650000000    -12.8098000   7.3520270     12.1693700    -142.3317000  -19.7901500   -159.8242000  -14.7594900   98.2871000    
2675000000    -12.9968700   4.3398110     12.1039000    -144.9019000  -19.7261100   -162.0581000  -14.7307600   95.9126500    
2700000000    -13.1405900   1.0459890     12.0406400    -147.3951000  -19.6605400   -164.2185000  -14.7707200   93.6585000    
2725000000    -13.3269600   -2.2246750    11.9802100    -149.9867000  -19.5846000   -166.4194000  -14.7506200   91.7211200    
2750000000    -13.4772200   -5.4982620    11.9157800    -152.4849000  -19.5202800   -168.6363000  -14.7824900   89.3671000    
2775000000    -13.6347900   -8.9240960    11.8562200    -154.9851000  -19.4427000   -170.8151000  -14.8508100   87.5403900    
2800000000    -13.8447400   -12.6282400   11.8017800    -157.6080000  -19.3661900   -173.0928000  -14.8169600   85.5326100    
2825000000    -13.9922400   -16.2499700   11.7366000    -160.1266000  -19.3094400   -175.3330000  -14.8731700   82.9832600    
2850000000    -14.1371800   -20.0195400   11.6758500    -162.6231000  -19.2405400   -177.5138000  -14.9522500   80.9793100    
2875000000    -14.2966700   -24.0429800   11.6248200    -165.1946000  -19.1697700   -179.7715000  -14.9814000   79.0895800    
2900000000    -14.4567600   -28.1094800   11.5685500    -167.7608000  -19.1004100   177.9911000   -15.0470200   76.8461500    
2925000000    -14.6191500   -32.3744600   11.5126200    -170.3345000  -19.0316200   175.7236000   -15.1026800   74.7421800    
2950000000    -14.7384600   -36.6305500   11.4566400    -172.8568000  -18.9722700   173.5060000   -15.2078200   72.5339300    
2975000000    -14.8466500   -41.2623600   11.4114400    -175.3999000  -18.8939600   171.2575000   -15.3268700   70.6179000    
3000000000    -15.0050200   -45.6646600   11.3598700    -178.0547000  -18.8180500   168.9518000   -15.3888200   68.9062000    
3025000000    -15.1224200   -50.4974100   11.3090200    179.3551000   -18.7538600   166.6302000   -15.4531600   66.8712500    
3050000000    -15.2366800   -55.1091000   11.2506200    176.7319000   -18.6887200   164.3076000   -15.5500900   64.5905700    
3075000000    -15.2983900   -59.9472100   11.2004400    174.1132000   -18.6231000   162.0012000   -15.6649300   62.6890000    
3100000000    -15.3507400   -64.8896200   11.1477700    171.4779000   -18.5606900   159.6456000   -15.7627600   60.7428100    
3125000000    -15.4721600   -69.8170000   11.0925000    168.7725000   -18.4953500   157.2620000   -15.8231200   58.6232900    
3150000000    -15.5198700   -74.5094800   11.0298300    166.0721000   -18.4395100   154.8521000   -15.9048000   56.3082500    
3175000000    -15.4495200   -79.5756500   10.9700800    163.4621000   -18.3854200   152.4808000   -16.0293200   53.8543400    
3200000000    -15.4075800   -84.5826500   10.9109300    160.7701000   -18.3272700   150.0985000   -16.1654200   51.6349000    
3225000000    -15.3892300   -89.1239200   10.8416600    158.0927000   -18.2795400   147.6704000   -16.2901000   49.3143400    
3250000000    -15.2915400   -93.9314100   10.7716600    155.4477000   -18.2312500   145.2567000   -16.4346100   46.8240300    
3275000000    -15.1876100   -99.1100200   10.7088200    152.7871000   -18.1916400   142.8333000   -16.6076000   44.0311900    
3300000000    -15.0680900   -103.4770000  10.6356000    150.1472000   -18.1466200   140.4570000   -16.8301000   41.4589200    
3325000000    -14.9497100   -108.1249000  10.5646300    147.4742000   -18.1105800   138.0298000   -17.0059200   38.8621700    
3350000000    -14.7653100   -112.5023000  10.4925200    144.8339000   -18.0784000   135.6292000   -17.2081600   36.1648400    
3375000000    -14.6100200   -116.7464000  10.4163500    142.1857000   -18.0456800   133.2148000   -17.4568700   33.2777500    
3400000000    -14.4592000   -121.1143000  10.3386200    139.5272000   -18.0144400   130.8191000   -17.7486400   30.2845300    
3425000000    -14.2362000   -124.8931000  10.2577700    136.9367000   -17.9945400   128.4680000   -18.0951800   27.1792700    
3450000000    -14.0251400   -128.6989000  10.1741700    134.3677000   -17.9696100   126.1681000   -18.4763800   24.3272900    
3475000000    -13.7897600   -132.3396000  10.0908800    131.7634000   -17.9456400   123.8333000   -18.9137700   21.5742900    
3500000000    -13.5039200   -135.9593000  10.0120600    129.2491000   -17.9249100   121.5074000   -19.3551000   18.6967000    
3525000000    -13.1665300   -139.4543000  9.9352110     126.7591000   -17.8975000   119.2901000   -19.9112300   15.8997300    
3550000000    -12.7927900   -142.9038000  9.8720150     124.2849000   -17.8594600   117.0249000   -20.4519600   13.6744200    
3575000000    -12.4389500   -146.3543000  9.8106780     121.7521000   -17.8217800   114.7389000   -20.9765900   11.5221800    
3600000000    -12.1037700   -150.1087000  9.7509870     119.1833000   -17.7762600   112.4044000   -21.5774800   9.4577440     
3625000000    -11.7735600   -153.8102000  9.6918600     116.5654000   -17.7359600   110.0484000   -22.2620800   7.9624620     
3650000000    -11.4056600   -157.6917000  9.6212560     113.8749000   -17.7006200   107.5759000   -22.9660200   7.0815520     
3675000000    -11.0733700   -161.5260000  9.5207810     111.2365000   -17.6901800   105.1116000   -23.6583800   6.8942910     
3700000000    -10.7663200   -165.9590000  9.4069100     108.8304000   -17.7105500   102.7771000   -23.9318800   8.0455800     
3725000000    -10.6176300   -170.1411000  9.3365930     106.7999000   -17.7083300   100.8857000   -23.7331400   4.9644770     
3750000000    -10.4921700   -173.3643000  9.3350010     104.4705000   -17.6327700   98.8514900    -24.1081600   -2.7358450    
3775000000    -10.3097300   -176.1328000  9.3185700     101.8182000   -17.5572300   96.5383300    -25.0239000   -9.7330550    
3800000000    -10.0688300   -178.8401000  9.2808980     99.1050300    -17.4984100   94.1151000    -26.1554000   -16.1252500   
3825000000    -9.8510600    178.2276000   9.2276270     96.3535800    -17.4497200   91.6155700    -27.3751200   -22.7304400   
3850000000    -9.5750650    175.3434000   9.1688720     93.6597600    -17.4138900   89.1284800    -28.7424700   -30.2090500   
3875000000    -9.3632500    172.5637000   9.1056240     90.9755300    -17.3772600   86.6894700    -30.3113100   -39.6654700   
3900000000    -9.1296560    169.7110000   9.0369690     88.2497600    -17.3476400   84.1997300    -31.8550100   -52.3336200   
3925000000    -8.9183310    166.7926000   8.9660020     85.5646100    -17.3266000   81.7081200    -33.1276400   -69.5458300   
3950000000    -8.6997800    163.9860000   8.8971480     82.9099900    -17.3010600   79.2619200    -33.9351300   -91.6628200   
3975000000    -8.4838600    161.2652000   8.8235990     80.2352800    -17.2824900   76.7899000    -33.6260500   -115.1227000  
4000000000    -8.2673050    158.5266000   8.7501380     77.5571500    -17.2631500   74.3631900    -32.4477900   -134.4527000  
4025000000    -8.0677170    155.9405000   8.6782990     74.9329100    -17.2441200   71.9003400    -30.8695500   -148.9336000  
4050000000    -7.8846140    153.3298000   8.6065600     72.2701900    -17.2284600   69.4367100    -29.3694800   -159.7239000  
4075000000    -7.6948360    150.6741000   8.5260760     69.6197600    -17.2133700   67.0149500    -27.8663100   -168.9746000  
4100000000    -7.5197220    148.0962000   8.4503490     66.9797600    -17.2020700   64.5635000    -26.4637000   -175.8007000  
4125000000    -7.3434320    145.5130000   8.3690920     64.3236600    -17.1909700   62.1104400    -25.2045300   178.7636000   
4150000000    -7.1745050    142.8907000   8.2905200     61.6665500    -17.1835400   59.6532500    -24.1354900   173.9345000   
4175000000    -7.0106770    140.3812000   8.2069640     59.0113300    -17.1707000   57.2018300    -23.2108600   169.2358000   
4200000000    -6.8516330    137.8663000   8.1220340     56.3702600    -17.1667800   54.7511700    -22.2958100   165.0300000   
4225000000    -6.6928870    135.4391000   8.0380920     53.7267400    -17.1621700   52.2926600    -21.4638200   161.1757000   
4250000000    -6.5541940    132.9238000   7.9564940     51.0648500    -17.1573300   49.8216400    -20.7206500   157.9238000   
4275000000    -6.4128860    130.5315000   7.8635230     48.4377400    -17.1545400   47.3277900    -20.0104300   154.6242000   
4300000000    -6.2775010    128.1428000   7.7768640     45.7742200    -17.1603800   44.8802700    -19.3449900   151.4585000   
4325000000    -6.1483980    125.7879000   7.6831720     43.1462200    -17.1572000   42.4335900    -18.7280000   148.3821000   
4350000000    -6.0296400    123.4232000   7.5895670     40.5382200    -17.1646800   39.9616400    -18.1379000   145.5386000   
4375000000    -5.9151100    121.0487000   7.4931930     37.9162300    -17.1752500   37.4945400    -17.6113800   142.8340000   
4400000000    -5.8090110    118.8292000   7.3934910     35.3123900    -17.1862800   35.0574300    -17.1001900   139.9198000   
4425000000    -5.7098520    116.5084000   7.2901710     32.6964400    -17.2060200   32.5650200    -16.6079600   137.1837000   
4450000000    -5.6152720    114.3715000   7.1782400     30.1702700    -17.2293300   30.1451900    -16.1100700   134.3237000   
4475000000    -5.5272700    112.2646000   7.0746220     27.6124400    -17.2535600   27.7386100    -15.6967100   131.5974000   
4500000000    -5.4473950    110.2542000   6.9613790     25.0830900    -17.2852700   25.3302200    -15.2724500   128.8916000   
4525000000    -5.3680780    108.2786000   6.8493290     22.6291700    -17.3201000   22.9928800    -14.8596000   126.0154000   
4550000000    -5.2850420    106.4462000   6.7364050     20.1981100    -17.3556000   20.6818800    -14.4730700   123.2682000   
4575000000    -5.1905540    104.6912000   6.6268310     17.8450800    -17.3888200   18.4498800    -14.1072500   120.5261000   
4600000000    -5.0974660    102.9425000   6.5267130     15.5063300    -17.4174600   16.2552100    -13.7712600   117.8128000   
4625000000    -4.9853730    101.2062000   6.4318800     13.2081600    -17.4381900   14.1057000    -13.4583000   115.0360000   
4650000000    -4.8552580    99.3989600    6.3432140     10.8763900    -17.4547500   11.9328000    -13.1618200   112.3603000   
4675000000    -4.7089830    97.5955700    6.2582000     8.5849260     -17.4692000   9.7944620     -12.8790800   109.7453000   
4700000000    -4.5764320    95.6325100    6.1860070     6.2379820     -17.4653800   7.6051210     -12.6295500   107.2361000   
4725000000    -4.4310630    93.6844300    6.1077800     3.8387810     -17.4658400   5.4035960     -12.3870800   104.7388000   
4750000000    -4.3012500    91.6145400    6.0305640     1.4672900     -17.4657800   3.1731250     -12.1522900   102.2984000   
4775000000    -4.1777470    89.5944500    5.9573030     -0.9762645    -17.4623100   0.9175287     -11.9295600   99.9272900    
4800000000    -4.0667130    87.4438900    5.8806760     -3.4062500    -17.4617800   -1.3566870    -11.7207600   97.5857700    
4825000000    -3.9629390    85.2870600    5.8015980     -5.8434350    -17.4659900   -3.6529860    -11.5152400   95.2221800    
4850000000    -3.8615310    83.1167800    5.7249580     -8.2649670    -17.4706300   -5.9528980    -11.3162000   92.9155900    
4875000000    -3.7706860    80.9608600    5.6432000     -10.7054200   -17.4775700   -8.2892580    -11.1164500   90.7449600    
4900000000    -3.6907660    78.8413000    5.5578160     -13.1530100   -17.4870200   -10.5538400   -10.9432800   88.5722100    
4925000000    -3.6140580    76.7241700    5.4750900     -15.5860000   -17.4951200   -12.8646500   -10.7902000   86.2880300    
4950000000    -3.5383060    74.6278200    5.3933460     -18.0113800   -17.5082500   -15.1654300   -10.6319500   83.8971100    
4975000000    -3.4689080    72.5642000    5.3037110     -20.4381300   -17.5202300   -17.4449500   -10.4637200   81.5459100    
5000000000    -3.4045960    70.4705100    5.2203460     -22.8689300   -17.5351700   -19.7406000   -10.3056400   79.3031400    
5025000000    -3.3457970    68.4028400    5.1376930     -25.2730300   -17.5497200   -22.0516400   -10.1581500   77.0651700    
5050000000    -3.2911370    66.3707600    5.0494010     -27.6877900   -17.5682600   -24.3260400   -10.0239800   74.7118500    
5075000000    -3.2351540    64.3595300    4.9642030     -30.0654500   -17.5832600   -26.5892000   -9.8806150    72.3341400    
5100000000    -3.1846710    62.2894100    4.8776280     -32.5015500   -17.5993600   -28.8821100   -9.7263740    70.1284000    
5125000000    -3.1380010    60.1922600    4.7883890     -34.8679200   -17.6220800   -31.1193000   -9.5832430    68.0528300    
5150000000    -3.0892960    58.1659300    4.7049420     -37.2523400   -17.6422500   -33.3790100   -9.4672350    66.0233400    
5175000000    -3.0517540    56.1353900    4.6146490     -39.6366000   -17.6621700   -35.6604200   -9.3705700    63.8917300    
5200000000    -3.0093680    54.1570500    4.5296610     -41.9795700   -17.6839800   -37.8672200   -9.2642320    61.6517000    
5225000000    -2.9733870    52.2154700    4.4444340     -44.3596100   -17.7020100   -40.0873600   -9.1599800    59.4391100    
5250000000    -2.9383190    50.2268400    4.3608370     -46.7232700   -17.7216900   -42.3461400   -9.0643680    57.3314100    
5275000000    -2.9073280    48.2596000    4.2715690     -49.0637400   -17.7472800   -44.5559500   -8.9789650    55.2380600    
5300000000    -2.8879700    46.3695900    4.1900350     -51.4282300   -17.7644700   -46.7751700   -8.9027770    53.0362700    
5325000000    -2.8616240    44.4664200    4.1085740     -53.7832600   -17.7838300   -48.9932700   -8.8284340    50.8316200    
5350000000    -2.8438830    42.4598400    4.0246740     -56.1589400   -17.7996400   -51.2397500   -8.7436240    48.6908400    
5375000000    -2.8302970    40.4698900    3.9400420     -58.5385700   -17.8233200   -53.4860600   -8.6732330    46.6031200    
5400000000    -2.8137970    38.4459100    3.8522080     -60.8924300   -17.8491300   -55.7178700   -8.6119910    44.5213300    
5425000000    -2.8005060    36.5245900    3.7602980     -63.2856900   -17.8791600   -57.9732400   -8.5527260    42.3826600    
5450000000    -2.7857750    34.6675700    3.6746330     -65.6521200   -17.9088900   -60.1694400   -8.4889820    40.2547800    
5475000000    -2.7881570    32.7967200    3.5811760     -67.9977200   -17.9398700   -62.3825400   -8.4246750    38.2791800    
5500000000    -2.7909960    30.9190500    3.4900350     -70.3714800   -17.9705500   -64.6002700   -8.3743750    36.4225600    
5525000000    -2.8019340    29.0202900    3.3905740     -72.7114500   -18.0119400   -66.7938700   -8.3381100    34.6013300    
5550000000    -2.8138670    27.2225500    3.2846160     -75.1073500   -18.0505600   -69.0476000   -8.3103220    32.8047000    
5575000000    -2.8304660    25.4954300    3.1751710     -77.4250400   -18.1066100   -71.2161900   -8.2688970    31.0824800    
5600000000    -2.8555670    23.7428700    3.0507150     -79.7353400   -18.1675500   -73.3290400   -8.2159940    29.5631800    
5625000000    -2.8831270    21.9888700    2.9246420     -81.9412100   -18.2373700   -75.3903400   -8.1419280    28.1920100    
5650000000    -2.8914270    20.1566500    2.7874100     -84.0340300   -18.3105200   -77.2820200   -8.0317400    26.6086300    
5675000000    -2.9006430    18.3796200    2.6639880     -85.9002800   -18.3729300   -78.9810400   -7.8851600    24.5706900    
5700000000    -2.9073730    16.6597700    2.5649610     -87.6828900   -18.4087500   -80.5836400   -7.7185500    22.1249100    
5725000000    -2.9220220    15.0559500    2.4906540     -89.5016700   -18.4215300   -82.2166700   -7.5851570    19.5859100    
5750000000    -2.9472680    13.5874500    2.4356410     -91.3081600   -18.4126600   -83.9015400   -7.5067650    17.1518600    
5775000000    -2.9703350    12.1166800    2.3874330     -93.2863600   -18.3961600   -85.6793500   -7.4732100    14.7656800    
5800000000    -2.9851580    10.6995600    2.3384190     -95.2667400   -18.3890100   -87.5023700   -7.4592950    12.3284300    
5825000000    -2.9872240    9.3507580     2.2869590     -97.2610100   -18.3718200   -89.3130900   -7.4440390    9.9137710     
5850000000    -2.9667390    8.0074400     2.2452590     -99.2190200   -18.3515100   -91.1464500   -7.4322520    7.6375140     
5875000000    -2.9408820    6.5276250     2.2028450     -101.2273000  -18.3229300   -92.9926400   -7.4297530    5.5373880     
5900000000    -2.9119100    4.9549470     2.1742670     -103.2505000  -18.2894400   -94.8591500   -7.4381410    3.4242770     
5925000000    -2.8603080    3.3478140     2.1460760     -105.3426000  -18.2529200   -96.7948500   -7.4558300    1.2344180     
5950000000    -2.8052160    1.6243060     2.1168490     -107.4733000  -18.2169800   -98.7799100   -7.4582310    -0.9405163    
5975000000    -2.7585150    -0.0341730    2.0871470     -109.6133000  -18.1836000   -100.7466000  -7.4477980    -3.0543620    
6000000000    -2.7192780    -1.7462010    2.0671930     -111.6961000  -18.1427300   -102.7220000  -7.4473920    -5.0165560    
6025000000    -2.6856230    -3.5971260    2.0489840     -113.8820000  -18.0991300   -104.7419000  -7.4613670    -6.8866210    
6050000000    -2.6685380    -5.4689040    2.0266870     -116.0956000  -18.0580300   -106.8093000  -7.4811910    -8.8311580    
6075000000    -2.6518660    -7.4481710    2.0064200     -118.3210000  -18.0179000   -108.8907000  -7.4980920    -10.8246500   
6100000000    -2.6345010    -9.5009250    1.9797530     -120.6279000  -17.9831300   -111.0452000  -7.5085160    -12.7963700   
6125000000    -2.6244110    -11.4625900   1.9572440     -122.8629000  -17.9471500   -113.1669000  -7.5208420    -14.7511700   
6150000000    -2.6160820    -13.4653000   1.9290740     -125.1577000  -17.9150700   -115.3034000  -7.5435120    -16.7241400   
6175000000    -2.6211950    -15.4587500   1.9036050     -127.4382000  -17.8772800   -117.4335000  -7.5677980    -18.7516300   
6200000000    -2.6263760    -17.3821600   1.8713480     -129.7345000  -17.8490700   -119.5976000  -7.5840320    -20.8709100   
6225000000    -2.6290480    -19.3026500   1.8501870     -132.0321000  -17.8126600   -121.7355000  -7.5970750    -22.9295600   
6250000000    -2.6500840    -21.2868800   1.8276890     -134.3567000  -17.7753400   -123.9054000  -7.6059610    -24.9212900   
6275000000    -2.6767730    -23.3422000   1.7973310     -136.6516000  -17.7471800   -126.0750000  -7.6193840    -26.8700600   
6300000000    -2.6970820    -25.3690900   1.7712590     -138.9744000  -17.7100100   -128.2265000  -7.6419810    -28.7968900   
6325000000    -2.7301320    -27.4096500   1.7478130     -141.3268000  -17.6726500   -130.4409000  -7.6683530    -30.7727800   
6350000000    -2.7569410    -29.4262500   1.7192690     -143.6826000  -17.6459700   -132.6452000  -7.6924330    -32.8277700   
6375000000    -2.7833540    -31.4255000   1.6910230     -146.0340000  -17.6102500   -134.8191000  -7.7150860    -34.8632900   
6400000000    -2.8250840    -33.4710000   1.6646700     -148.4153000  -17.5754900   -137.0619000  -7.7313000    -36.8539200   
6425000000    -2.8728900    -35.4846700   1.6308030     -150.7673000  -17.5460500   -139.2292000  -7.7580440    -38.8306200   
6450000000    -2.9195360    -37.4753500   1.6093600     -153.1058000  -17.5089100   -141.4372000  -7.7950530    -40.8218300   
6475000000    -2.9678480    -39.5443300   1.5835450     -155.5276000  -17.4720600   -143.7054000  -7.8307610    -42.9217900   
6500000000    -3.0277730    -41.5311000   1.5530520     -157.8928000  -17.4375300   -145.9141000  -7.8530740    -44.9752500   
6525000000    -3.0851750    -43.6175000   1.5304220     -160.3180000  -17.3982000   -148.1673000  -7.8680820    -46.9565400   
6550000000    -3.1575490    -45.7544800   1.5051300     -162.7192000  -17.3628900   -150.4234000  -7.8974600    -48.7965100   
6575000000    -3.2310040    -47.8929300   1.4705900     -165.1425000  -17.3328400   -152.6752000  -7.9428290    -50.6693500   
6600000000    -3.3065020    -49.9710700   1.4461230     -167.5451000  -17.2919300   -154.9737000  -7.9973800    -52.6737500   
6625000000    -3.3919100    -52.0138400   1.4178910     -170.0461000  -17.2592900   -157.2803000  -8.0404840    -54.7835900   
6650000000    -3.4905250    -54.0754100   1.3881250     -172.4488000  -17.2227600   -159.5838000  -8.0778390    -56.8060500   
6675000000    -3.5970650    -56.2123500   1.3548330     -174.9394000  -17.1916100   -161.9341000  -8.1201500    -58.8054500   
6700000000    -3.7085010    -58.3359300   1.3235790     -177.4308000  -17.1582700   -164.3058000  -8.1770150    -60.8407200   
6725000000    -3.8325910    -60.4602600   1.2816970     -179.9692000  -17.1359900   -166.6603000  -8.2230770    -62.9780700   
6750000000    -3.9636000    -62.4684000   1.2375300     177.5338000   -17.1153200   -169.0473000  -8.2550670    -65.1453300   
6775000000    -4.1019600    -64.4535100   1.1863070     175.0621000   -17.0960100   -171.3832000  -8.2890340    -67.1977800   
6800000000    -4.2592450    -66.3908200   1.1332060     172.6060000   -17.0830400   -173.7245000  -8.3269270    -69.2160900   
6825000000    -4.4184420    -68.1885200   1.0820380     170.1672000   -17.0740700   -176.0589000  -8.3752990    -71.2582200   
6850000000    -4.5826120    -69.8692800   1.0215910     167.7478000   -17.0660600   -178.3566000  -8.4242450    -73.3769300   
6875000000    -4.7459770    -71.3874900   0.9654130     165.4282000   -17.0571100   179.3685000   -8.4741060    -75.5009700   
6900000000    -4.9097730    -72.8643200   0.9031626     163.1222000   -17.0497600   177.1412000   -8.5277520    -77.6928500   
6925000000    -5.0617210    -74.1853800   0.8501367     160.8602000   -17.0408200   174.9689000   -8.5856700    -79.8781400   
6950000000    -5.1857120    -75.4838300   0.8005910     158.6385000   -17.0320100   172.8046000   -8.6368680    -82.1187800   
6975000000    -5.2970600    -76.6564800   0.7495650     156.5195000   -17.0164500   170.7575000   -8.7012790    -84.3163500   
7000000000    -5.3814070    -77.8279200   0.7229405     154.4129000   -16.9877300   168.7044000   -8.7751000    -86.5307800   
7025000000    -5.4310600    -79.1394900   0.7094604     152.2532000   -16.9460000   166.6155000   -8.8534500    -88.8176800   
7050000000    -5.4444290    -80.5460000   0.7005484     150.1210000   -16.8982700   164.5954000   -8.9279000    -91.1191700   
7075000000    -5.4459370    -82.0898200   0.7067710     147.9785000   -16.8347200   162.5108000   -8.9957260    -93.3207600   
7100000000    -5.4527570    -83.7911100   0.7187402     145.8094000   -16.7588900   160.3941000   -9.0842500    -95.4043800   
7125000000    -5.4502540    -85.6943800   0.7487819     143.4944000   -16.6801700   158.2223000   -9.1991930    -97.4905700   
7150000000    -5.4521460    -87.8730900   0.7841222     141.1842000   -16.5869700   155.9399000   -9.3131390    -99.6945000   
7175000000    -5.4522510    -90.1967900   0.8206018     138.6940000   -16.4970700   153.5767000   -9.4100090    -101.9743000  
7200000000    -5.4740710    -92.6834900   0.8530560     136.2215000   -16.4049900   151.1817000   -9.5005660    -104.1302000  
7225000000    -5.5101420    -95.2265300   0.8926399     133.6470000   -16.3102500   148.7099000   -9.6034960    -106.1617000  
7250000000    -5.5570560    -98.0235000   0.9294055     130.9653000   -16.2205800   146.1282000   -9.7084800    -108.1964000  
7275000000    -5.6373430    -100.8630000  0.9645931     128.2994000   -16.1336700   143.5112000   -9.8069800    -110.3001000  
7300000000    -5.7155190    -103.9373000  0.9853002     125.5076000   -16.0496600   140.8506000   -9.8877470    -112.3501000  
7325000000    -5.8287920    -107.0184000  1.0093170     122.7017000   -15.9730200   138.1052000   -9.9721550    -114.2868000  
7350000000    -5.9532200    -110.1354000  1.0304190     119.8695000   -15.8979600   135.3674000   -10.0696800   -116.2157000  
7375000000    -6.0949260    -113.4166000  1.0478300     116.9520000   -15.8274100   132.5372000   -10.1687100   -118.2425000  
7400000000    -6.2575970    -116.6850000  1.0587880     114.0074000   -15.7648400   129.7093000   -10.2549100   -120.3312000  
7425000000    -6.4425000    -120.1553000  1.0607880     111.0689000   -15.7061800   126.8314000   -10.3275400   -122.3878000  
7450000000    -6.6466900    -123.6335000  1.0633210     108.0323000   -15.6509300   123.9133000   -10.3991700   -124.4030000  
7475000000    -6.8673990    -127.3199000  1.0554690     104.9916000   -15.6026800   120.9583000   -10.4759500   -126.4034000  
7500000000    -7.1129410    -130.9700000  1.0449010     101.9194000   -15.5633200   117.9916000   -10.5407700   -128.5437000  
7525000000    -7.3733360    -134.8137000  1.0252440     98.8143300    -15.5253500   114.9896000   -10.5968400   -130.6497000  
7550000000    -7.6601320    -138.8054000  0.9993214     95.6845600    -15.5024300   111.9495000   -10.6386000   -132.7635000  
7575000000    -7.9751610    -142.9045000  0.9692515     92.5519300    -15.4796800   108.9058000   -10.6790300   -134.9116000  
7600000000    -8.3016610    -147.0935000  0.9312768     89.3802800    -15.4650700   105.8557000   -10.7173800   -137.0656000  
7625000000    -8.6705680    -151.4444000  0.8778273     86.1570800    -15.4617400   102.7756000   -10.7435300   -139.2776000  
7650000000    -9.0685160    -155.8857000  0.8231205     82.9746000    -15.4630500   99.6932400    -10.7657100   -141.4604000  
7675000000    -9.5156310    -160.6037000  0.7599522     79.7911000    -15.4725700   96.5960000    -10.7880500   -143.6776000  
7700000000    -9.9874440    -165.5559000  0.6791558     76.5640900    -15.4875900   93.4877400    -10.8073300   -145.9389000  
7725000000    -10.4816200   -170.7837000  0.5959563     73.3560300    -15.5202800   90.3870600    -10.8222200   -148.3204000  
7750000000    -11.0326700   -176.0437000  0.5044357     70.2005800    -15.5616300   87.3162200    -10.8382500   -150.7519000  
7775000000    -11.6047400   178.3613000   0.3962457     67.0216000    -15.6051400   84.2426300    -10.8391000   -153.2662000  
7800000000    -12.2387100   172.4962000   0.2823893     63.9139000    -15.6673900   81.2106600    -10.8450000   -155.8511000  
7825000000    -12.9120500   166.1832000   0.1551310     60.8320100    -15.7305900   78.2499100    -10.8510500   -158.4734000  
7850000000    -13.5917500   159.7426000   0.0233066     57.8306500    -15.8062800   75.3089200    -10.8609200   -161.1770000  
7875000000    -14.3209900   153.0008000   -0.1203645    54.8976100    -15.8884500   72.4785000    -10.8753500   -164.0170000  
7900000000    -15.1013400   145.7535000   -0.2617008    52.0500100    -15.9772800   69.6955200    -10.8846300   -166.9019000  
7925000000    -15.8638100   138.3517000   -0.4003432    49.3001000    -16.0674000   67.0119600    -10.8950200   -169.7887000  
7950000000    -16.5994500   130.4576000   -0.5433035    46.6480100    -16.1512800   64.4235200    -10.9138500   -172.7350000  
7975000000    -17.2652400   122.5566000   -0.6800469    44.0573800    -16.2312000   61.9639700    -10.9534700   -175.7445000  
8000000000    -17.9129600   114.5784000   -0.8083189    41.5616300    -16.3033200   59.5233400    -10.9908300   -178.8502000  
8025000000    -18.4325900   106.6037000   -0.9159179    39.1668100    -16.3589800   57.1810000    -11.0268500   178.0500000   
8050000000    -18.8317600   99.3057900    -1.0091150    36.7584600    -16.4012300   54.8552700    -11.0665800   175.0190000   
8075000000    -19.0381300   92.1317500    -1.0868600    34.3337400    -16.4240400   52.5364800    -11.1151800   172.0455000   
8100000000    -19.0590100   85.5569800    -1.1412900    31.9068200    -16.4296800   50.1733600    -11.1641700   169.0632000   
8125000000    -18.8459700   79.7761300    -1.1828570    29.3835000    -16.4214800   47.7581100    -11.2102500   166.1396000   
8150000000    -18.4819400   74.2031300    -1.2153670    26.7625700    -16.4002500   45.2329600    -11.2468400   163.2896000   
8175000000    -17.9706700   69.4179600    -1.2410470    24.0109700    -16.3746500   42.6105200    -11.2782600   160.5005000   
8200000000    -17.3140800   64.2760400    -1.2625590    21.1551000    -16.3393700   39.8451300    -11.3027400   157.7047000   
8225000000    -16.5771800   59.6424900    -1.2902630    18.0778700    -16.3131200   36.9737700    -11.3141100   154.9125000   
8250000000    -15.7375200   55.1381000    -1.3269960    14.9652400    -16.2914300   33.9709400    -11.2969200   152.0672000   
8275000000    -14.9317900   50.8404900    -1.3729780    11.7451400    -16.2799200   30.8857900    -11.2631100   149.2250000   
8300000000    -14.1601400   46.3664400    -1.4365060    8.4554310     -16.2817100   27.7083800    -11.2118500   146.3718000   
8325000000    -13.4216600   41.7943500    -1.5123200    5.0895560     -16.2945800   24.5150700    -11.1471400   143.4817000   
8350000000    -12.6650900   37.1585300    -1.5999000    1.7058400     -16.3214200   21.2287300    -11.0718600   140.5479000   
8375000000    -11.9526900   32.6144500    -1.7056090    -1.7149190    -16.3618600   17.9381700    -10.9890500   137.5537000   
8400000000    -11.2907700   28.2289500    -1.8317890    -5.1578040    -16.4182900   14.6294600    -10.9066800   134.4452000   
8425000000    -10.7000500   23.7237900    -1.9658680    -8.5927340    -16.4855700   11.3266900    -10.8231600   131.2913000   
8450000000    -10.1322000   19.2512100    -2.1207590    -12.0448900   -16.5694000   8.0016430     -10.7359400   128.1096000   
8475000000    -9.5916920    14.9593200    -2.2873610    -15.4276700   -16.6660200   4.6940890     -10.6526800   124.8555000   
8500000000    -9.0923710    10.8245700    -2.4746630    -18.7903200   -16.7729600   1.4390370     -10.5746800   121.4740000   
8525000000    -8.6614760    6.7742970     -2.6673810    -22.1354800   -16.8948700   -1.8176110    -10.4843800   117.9675000   
8550000000    -8.2549950    2.7584650     -2.8757060    -25.4139800   -17.0282900   -5.0208850    -10.3849700   114.4462000   
8575000000    -7.8780850    -1.1925340    -3.0936010    -28.6232700   -17.1710100   -8.1525270    -10.2819900   111.0025000   
8600000000    -7.5226000    -5.0407510    -3.3287260    -31.8017100   -17.3214600   -11.2452600   -10.1841100   107.5563000   
8625000000    -7.1958450    -8.7374110    -3.5655900    -34.8451300   -17.4838700   -14.2735500   -10.0951100   104.0140000   
8650000000    -6.9106600    -12.4278300   -3.8076530    -37.8533000   -17.6472800   -17.2435600   -10.0028200   100.4368000   
8675000000    -6.6375400    -16.0493300   -4.0631730    -40.8140300   -17.8199600   -20.1509800   -9.9070550    96.8848800    
8700000000    -6.3862550    -19.4698100   -4.3312280    -43.6208300   -17.9983900   -22.9883500   -9.8170110    93.3653600    
8725000000    -6.1518590    -22.8123500   -4.5923400    -46.4072000   -18.1785800   -25.7514200   -9.7362050    89.7896200    
8750000000    -5.9399960    -26.0942600   -4.8585060    -49.0720600   -18.3579900   -28.4559500   -9.6511280    86.1691700    
8775000000    -5.7542640    -29.2586300   -5.1293380    -51.6329300   -18.5416300   -31.0678300   -9.5624330    82.5541200    
8800000000    -5.5778660    -32.3811200   -5.4045230    -54.1678300   -18.7301500   -33.6485000   -9.4692260    78.9633300    
8825000000    -5.4090680    -35.4525200   -5.6778260    -56.6231200   -18.9132000   -36.1688000   -9.3805520    75.4242400    
8850000000    -5.2585990    -38.3382900   -5.9473270    -58.9395900   -19.1018900   -38.5596300   -9.2897290    71.9189400    
8875000000    -5.1279710    -41.2291400   -6.2239420    -61.2102500   -19.2776800   -40.9537900   -9.2017060    68.4246700    
8900000000    -5.0008800    -44.0834700   -6.4915860    -63.3754700   -19.4635500   -43.2878100   -9.1171890    64.9245500    
8925000000    -4.8881130    -46.8541100   -6.7613590    -65.4374700   -19.6466000   -45.5256700   -9.0252330    61.4613300    
8950000000    -4.7822400    -49.5011600   -7.0291270    -67.4658400   -19.8216300   -47.6952800   -8.9316240    58.0388900    
8975000000    -4.6944680    -52.1565500   -7.2870860    -69.3620800   -20.0015000   -49.8126600   -8.8459800    54.7195400    
9000000000    -4.6193370    -54.7777100   -7.5496960    -71.1231400   -20.1712900   -51.8290900   -8.7682040    51.3779900    
9025000000    -4.5378540    -57.3115700   -7.7848320    -72.7898100   -20.3306800   -53.8157400   -8.6931200    47.9884000    
9050000000    -4.4722220    -59.7966300   -8.0129870    -74.3801400   -20.4917800   -55.6999200   -8.6103640    44.6152200    
9075000000    -4.4213770    -62.1522800   -8.2292490    -75.8321300   -20.6339500   -57.4596000   -8.5195640    41.3747900    
9100000000    -4.3946530    -64.4457500   -8.4253250    -77.2377800   -20.7634900   -59.1748900   -8.4428100    38.2294200    
9125000000    -4.3670490    -66.7238600   -8.5989760    -78.5542700   -20.8765900   -60.8379700   -8.3781280    35.0645300    
9150000000    -4.3478110    -68.9131500   -8.7358230    -79.8702700   -20.9652600   -62.4813600   -8.3129590    31.8306600    
9175000000    -4.3394190    -70.9454300   -8.8582710    -81.1764700   -21.0406100   -64.1079300   -8.2345860    28.6305100    
9200000000    -4.3400190    -72.9253900   -8.9454130    -82.5772600   -21.0860800   -65.7161500   -8.1484810    25.5955400    
9225000000    -4.3480450    -74.8423500   -9.0039700    -84.0863600   -21.1102100   -67.4352900   -8.0734590    22.6426800    
9250000000    -4.3464310    -76.6098800   -9.0519520    -85.6301000   -21.1161100   -69.2087600   -8.0031080    19.7058300    
9275000000    -4.3364290    -78.2358200   -9.0687660    -87.4404800   -21.1006100   -71.1360900   -7.9210140    16.7916200    
9300000000    -4.3314980    -79.6715700   -9.0946740    -89.4721200   -21.0796800   -73.2017700   -7.8363890    13.9754500    
9325000000    -4.3146730    -81.0116500   -9.1046720    -91.6016500   -21.0387200   -75.3529900   -7.7495270    11.2580300    
9350000000    -4.2915840    -82.3659700   -9.1236770    -94.0054500   -20.9990700   -77.7657700   -7.6559100    8.5198350     
9375000000    -4.2497910    -83.7000500   -9.1595940    -96.5798800   -20.9704000   -80.3137000   -7.5584620    5.7588260     
9400000000    -4.1870280    -84.9100800   -9.2116690    -99.2203800   -20.9523700   -83.0115500   -7.4480950    3.0565870     
9425000000    -4.1104870    -86.1944700   -9.2709390    -102.1630000  -20.9398100   -85.8439100   -7.3330930    0.3923604     
9450000000    -4.0317680    -87.5074400   -9.3736530    -105.0113000  -20.9447600   -88.7245600   -7.2210080    -2.2504160    
9475000000    -3.9453130    -88.9518200   -9.4931090    -107.9065000  -20.9701700   -91.6955000   -7.1027930    -4.9320760    
9500000000    -3.8343780    -90.4423000   -9.6332340    -110.8950000  -21.0113400   -94.7299100   -6.9819930    -7.6383520    
9525000000    -3.7289780    -91.9329700   -9.8149190    -113.7154000  -21.0749900   -97.7358200   -6.8599010    -10.3394900   
9550000000    -3.6199050    -93.4605500   -9.9865080    -116.4828000  -21.1496500   -100.7312000  -6.7367270    -13.0550600   
9575000000    -3.5249270    -95.0432500   -10.1957400   -119.3294000  -21.2395700   -103.7355000  -6.6164150    -15.8065700   
9600000000    -3.4315220    -96.7164300   -10.4070600   -121.9715000  -21.3429500   -106.6358000  -6.4924360    -18.5075800   
9625000000    -3.3401900    -98.4058300   -10.6457900   -124.6578000  -21.4524700   -109.5338000  -6.3718570    -21.2170300   
9650000000    -3.2459010    -100.1720000  -10.8877300   -127.0488000  -21.5705200   -112.3290000  -6.2635470    -23.9359700   
9675000000    -3.1730180    -101.9354000  -11.1332600   -129.4130000  -21.6946900   -115.1476000  -6.1514930    -26.7224700   
9700000000    -3.0985660    -103.6943000  -11.3809500   -131.7152000  -21.8282600   -117.8577000  -6.0361840    -29.4998000   
9725000000    -3.0290070    -105.4327000  -11.6327500   -133.8499000  -21.9618800   -120.4764000  -5.9197840    -32.1484900   
9750000000    -2.9733120    -107.2772000  -11.8974000   -135.7441000  -22.1016700   -123.0272000  -5.8131190    -34.7952800   
9775000000    -2.9192050    -109.1164000  -12.1324200   -137.7334000  -22.2325300   -125.5519000  -5.7121950    -37.4232100   
9800000000    -2.8681560    -110.8815000  -12.3806800   -139.4715000  -22.3647700   -128.0144000  -5.6165090    -40.0780900   
9825000000    -2.8212700    -112.6661000  -12.6284300   -141.2332000  -22.4994900   -130.3710000  -5.5197380    -42.7114400   
9850000000    -2.7789450    -114.3558000  -12.8450600   -142.8889000  -22.6231800   -132.7146000  -5.4259790    -45.3280000   
9875000000    -2.7499280    -116.0985000  -13.0654600   -144.3990000  -22.7388400   -135.0262000  -5.3410250    -47.9567300   
9900000000    -2.7276190    -117.8242000  -13.2708900   -145.8505000  -22.8483100   -137.3120000  -5.2539550    -50.6107000   
9925000000    -2.7010070    -119.5743000  -13.4880400   -147.1730000  -22.9643700   -139.5098000  -5.1683050    -53.2801800   
9950000000    -2.6712430    -121.2475000  -13.6541800   -148.5393000  -23.0637000   -141.6875000  -5.0775790    -55.9132000   
9975000000    -2.6589090    -122.8685000  -13.8167300   -149.8787000  -23.1687800   -143.8171000  -4.9900050    -58.4997800   
10000000000   -2.6470980    -124.5115000  -13.9833400   -151.1102000  -23.2556000   -145.9294000  -4.9052390    -61.0244500   
10025000000   -2.6388120    -126.1801000  -14.1295300   -152.2071000  -23.3269600   -147.9406000  -4.8182340    -63.4992600   
10050000000   -2.6349940    -127.8513000  -14.2146100   -153.4836000  -23.3988300   -150.0496000  -4.7401190    -66.0027500   
10075000000   -2.6267820    -129.4170000  -14.3301100   -154.6949000  -23.4628700   -152.0516000  -4.6740240    -68.5062900   
10100000000   -2.6272310    -130.8987000  -14.4050100   -155.8635000  -23.5064000   -154.0193000  -4.6022620    -71.0306200   
10125000000   -2.6374940    -132.4694000  -14.4684300   -156.9166000  -23.5382400   -155.9808000  -4.5288920    -73.5373200   
10150000000   -2.6499630    -133.9835000  -14.4927800   -158.4363000  -23.5568900   -157.9482000  -4.4542520    -75.9600600   
10175000000   -2.6601400    -135.4984000  -14.5118200   -159.7128000  -23.5555500   -159.9128000  -4.3841400    -78.3519100   
10200000000   -2.6661210    -136.8643000  -14.4861000   -161.1247000  -23.5281500   -161.9371000  -4.3235880    -80.7226000   
10225000000   -2.6880580    -138.2805000  -14.4622500   -162.8096000  -23.4977700   -163.9819000  -4.2638750    -83.1040000   
10250000000   -2.6952970    -139.6363000  -14.4279200   -164.6969000  -23.4302500   -166.1305000  -4.2089670    -85.4880600   
10275000000   -2.7144070    -141.0426000  -14.3843500   -166.6496000  -23.3571600   -168.4078000  -4.1519270    -87.8501200   
10300000000   -2.7093360    -142.2704000  -14.3664700   -168.9649000  -23.2744100   -170.7798000  -4.0980460    -90.1869900   
10325000000   -2.7157920    -143.4348000  -14.3345100   -171.3378000  -23.1770100   -173.2839000  -4.0486020    -92.5373200   
10350000000   -2.7122650    -144.5659000  -14.3170300   -173.7922000  -23.0753900   -175.9177000  -4.0024790    -94.8494200   
10375000000   -2.7134640    -145.7449000  -14.3247300   -176.5202000  -22.9701200   -178.7716000  -3.9498650    -97.1664300   
10400000000   -2.6940150    -146.9085000  -14.3553500   -179.4127000  -22.8718200   178.2513000   -3.9036040    -99.4305400   
10425000000   -2.6726980    -147.9886000  -14.4081600   177.7351000   -22.7846100   175.2671000   -3.8619440    -101.5480000  
10450000000   -2.6446920    -149.0942000  -14.4861200   174.9048000   -22.7015500   172.0776000   -3.8212530    -103.6399000  
10475000000   -2.6053190    -150.2613000  -14.5915500   171.8682000   -22.6401600   168.8513000   -3.7969510    -105.7632000  
10500000000   -2.5690880    -151.5752000  -14.7107900   169.0516000   -22.5894200   165.5827000   -3.7632780    -107.8206000  
10525000000   -2.5189010    -152.8008000  -14.8549900   166.2963000   -22.5447900   162.3603000   -3.7201020    -109.8143000  
10550000000   -2.4750230    -154.0831000  -15.0422700   163.6930000   -22.5170600   159.1897000   -3.6632080    -111.6842000  
10575000000   -2.4279750    -155.3403000  -15.2077000   161.2424000   -22.4782400   156.1002000   -3.5988940    -113.4847000  
10600000000   -2.3844290    -156.6861000  -15.3752400   158.8501000   -22.4337300   152.9900000   -3.5210020    -115.3332000  
10625000000   -2.3466160    -158.1022000  -15.5357900   156.5718000   -22.3878900   149.9613000   -3.4271900    -117.2447000  
10650000000   -2.2963950    -159.5424000  -15.7194900   154.4402000   -22.3239300   146.9094000   -3.3129860    -119.2015000  
10675000000   -2.2580960    -160.9165000  -15.8567300   152.2738000   -22.2453800   143.8905000   -3.1893510    -121.1848000  
10700000000   -2.2280110    -162.2992000  -16.0095500   150.2808000   -22.1460400   140.8017000   -3.0660360    -123.2448000  
10725000000   -2.2092110    -163.7661000  -16.1387700   148.2398000   -22.0401100   137.5711000   -2.9489440    -125.4701000  
10750000000   -2.1864340    -165.2918000  -16.2537300   146.3253000   -21.9236600   134.2898000   -2.8412290    -127.7786000  
10775000000   -2.1600030    -166.7524000  -16.3596900   144.2705000   -21.7936500   130.9584000   -2.7227060    -130.1166000  
10800000000   -2.1437880    -168.2947000  -16.4531400   142.3509000   -21.6490600   127.4736000   -2.6112360    -132.5110000  
10825000000   -2.1400280    -169.7791000  -16.5305100   140.4099000   -21.5126300   123.8665000   -2.5117180    -134.9757000  
10850000000   -2.1322820    -171.2280000  -16.5851200   138.3223000   -21.3669500   120.2286000   -2.4270060    -137.4553000  
10875000000   -2.1309200    -172.7666000  -16.6663400   136.2390000   -21.2083500   116.4189000   -2.3485590    -140.0087000  
10900000000   -2.1387880    -174.2109000  -16.7058900   134.0596000   -21.0479600   112.5109000   -2.2787660    -142.6208000  
10925000000   -2.1436060    -175.6678000  -16.7344700   131.6189000   -20.8793000   108.3997000   -2.2119060    -145.3269000  
10950000000   -2.1584200    -177.1220000  -16.7870700   129.2423000   -20.7179300   104.1167000   -2.1616020    -148.1072000  
10975000000   -2.1718680    -178.4951000  -16.8339300   126.6629000   -20.5564700   99.6971100    -2.1313970    -150.8807000  
11000000000   -2.1914470    -179.9342000  -16.8894000   123.8442000   -20.4019800   95.0171900    -2.1284950    -153.7365000  
11025000000   -2.2243350    178.6554000   -16.9603100   120.9552000   -20.2704500   90.1415500    -2.1627490    -156.6931000  
11050000000   -2.2369450    177.1375000   -17.0772900   117.7061000   -20.1551400   84.9105500    -2.2308420    -159.7246000  
11075000000   -2.2575520    175.7963000   -17.2953800   114.8459000   -20.1079600   79.5442100    -2.3550420    -162.7119000  
11100000000   -2.2741880    174.5233000   -17.5490800   112.4570000   -20.1248800   74.0420000    -2.5464570    -165.3518000  
11125000000   -2.2899920    173.2828000   -17.8482900   110.9169000   -20.2301400   68.6031200    -2.8078540    -167.4199000  
11150000000   -2.3243890    171.9612000   -18.1209500   110.7752000   -20.4526100   63.6951200    -3.0913020    -168.5207000  
11175000000   -2.3532360    170.5701000   -18.0849200   112.0998000   -20.7221200   59.8436100    -3.2707850    -168.4897000  
11200000000   -2.3849640    169.1026000   -17.6130100   112.1803000   -20.8932800   57.1522800    -3.2046300    -168.1207000  
11225000000   -2.4301860    167.8092000   -16.9882000   109.9868000   -20.8740700   54.8352500    -2.9558950    -168.7121000  
11250000000   -2.4758250    166.6180000   -16.4757700   105.6197000   -20.7148000   51.9126300    -2.6906630    -170.5981000  
11275000000   -2.5328530    165.3892000   -16.1459500   100.3017000   -20.5276000   48.2465600    -2.5073500    -173.2653000  
11300000000   -2.5928710    164.1679000   -15.9704600   94.6911200    -20.3636300   44.1536300    -2.4215350    -176.1867000  
11325000000   -2.6463050    162.8711000   -15.9178000   89.1164600    -20.2388300   39.8741700    -2.4093620    -179.0783000  
11350000000   -2.7000700    161.6541000   -15.9510700   83.8651000    -20.1322100   35.6526900    -2.4438090    178.1271000   
11375000000   -2.7558090    160.4585000   -15.9956200   78.6971200    -20.0314600   31.6085500    -2.5145230    175.5611000   
11400000000   -2.8299840    159.2903000   -16.0151600   73.7461200    -19.9092600   27.6998500    -2.6049880    173.2280000   
11425000000   -2.9172430    158.1268000   -16.0597100   68.6822700    -19.7385200   23.8024100    -2.7118040    171.0627000   
11450000000   -3.0260580    157.0110000   -16.0701700   63.5413700    -19.5158000   19.8570300    -2.8250240    168.9892000   
11475000000   -3.1465850    155.9703000   -16.0757400   58.0297700    -19.2240800   15.6814800    -2.9309760    166.9772000   
11500000000   -3.2897800    154.9931000   -16.0924000   52.2322800    -18.8905600   11.0828400    -3.0538480    165.1492000   
11525000000   -3.4498160    154.3184000   -16.0747300   45.9178800    -18.5128700   5.9915550     -3.1835070    163.5266000   
11550000000   -3.6223870    153.9472000   -16.1045000   38.9450300    -18.1101500   0.2247669     -3.3307030    161.9805000   
11575000000   -3.7856760    153.9964000   -16.1648900   31.1516000    -17.7161300   -6.3465760    -3.4764130    160.5845000   
11600000000   -3.9312740    154.4510000   -16.3484100   22.7120200    -17.3793900   -13.7325400   -3.6107460    159.5076000   
11625000000   -4.0020930    155.3064000   -16.6316000   13.6846500    -17.1392000   -21.8643400   -3.7261580    158.7868000   
11650000000   -3.9634610    156.3813000   -17.0926600   4.2327670     -17.0217300   -30.5096500   -3.8144150    158.3168000   
11675000000   -3.8348900    157.4554000   -17.7042800   -5.3527570    -17.0595800   -39.3650900   -3.8557690    157.8429000   
11700000000   -3.6348210    158.0973000   -18.5086700   -14.8255800   -17.2488900   -48.1234500   -3.8264960    157.3064000   
11725000000   -3.3898460    158.1550000   -19.4539800   -23.9752300   -17.5664500   -56.5528900   -3.7521710    156.7085000   
11750000000   -3.1293120    157.6763000   -20.5252300   -32.4430800   -17.9849600   -64.4957500   -3.6622240    155.9618000   
11775000000   -2.9033910    156.7837000   -21.7145900   -40.5660600   -18.4906400   -71.8253200   -3.5816600    154.8926000   
11800000000   -2.6871250    155.6822000   -22.9700900   -47.8374700   -19.0333800   -78.5029800   -3.4993350    153.5302000   
11825000000   -2.4987030    154.3807000   -24.2175800   -55.0981600   -19.6094900   -84.6367800   -3.4077500    152.0587000   
11850000000   -2.3391320    153.0330000   -25.5532000   -61.1909200   -20.1993000   -90.1892900   -3.3313020    150.6293000   
11875000000   -2.1981230    151.5488000   -26.8834400   -66.8571400   -20.7897700   -95.2744900   -3.2836140    149.2170000   
11900000000   -2.0817890    150.0814000   -28.2576800   -72.6914600   -21.3636700   -99.8350600   -3.2473460    147.5932000   
11925000000   -1.9739200    148.5296000   -29.6677400   -78.9455900   -21.9302900   -104.0227000  -3.2130140    145.8645000   
11950000000   -1.8865800    147.0089000   -31.0068800   -83.7600500   -22.4908200   -107.8370000  -3.1711570    144.2575000   
11975000000   -1.8067540    145.5405000   -32.3549500   -88.9019500   -23.0022700   -111.2769000  -3.1394990    142.7779000   
12000000000   -1.7402900    144.0697000   -33.4197900   -94.8314900   -23.4875000   -114.4030000  -3.1281550    141.2837000   
12025000000   -1.6813690    142.5192000   -34.7844900   -100.5860000  -23.9304300   -117.4702000  -3.1090020    139.6227000   
12050000000   -1.6328090    141.0308000   -35.9764400   -107.9838000  -24.3575200   -120.3411000  -3.0887140    137.9116000   
12075000000   -1.5961960    139.5656000   -36.6925200   -115.2731000  -24.7608800   -123.0052000  -3.0612670    136.3576000   
12100000000   -1.5519000    138.1634000   -37.7745000   -121.9962000  -25.1237300   -125.5989000  -3.0409860    134.8617000   
12125000000   -1.5234950    136.6905000   -38.4297600   -132.4276000  -25.4620800   -128.1637000  -3.0223750    133.2907000   
12150000000   -1.5015720    135.3010000   -38.9563800   -141.4234000  -25.7754000   -130.6207000  -2.9967620    131.6306000   
12175000000   -1.4803680    133.7778000   -39.4677200   -150.4541000  -26.0748700   -133.1869000  -2.9711400    130.0156000   
12200000000   -1.4576320    132.3877000   -39.5699800   -159.7623000  -26.3594000   -135.5462000  -2.9412180    128.4924000   
12225000000   -1.4366650    131.0753000   -39.4275400   -170.5867000  -26.6250900   -137.9144000  -2.9138690    126.9882000   
12250000000   -1.4315580    129.6728000   -39.3780600   -175.3452000  -26.8823500   -140.3017000  -2.8830660    125.4715000   
12275000000   -1.4125270    128.3751000   -39.0392200   176.2192000   -27.1159400   -142.6347000  -2.8562090    123.9427000   
12300000000   -1.4012890    127.0395000   -38.7358000   168.8015000   -27.3465700   -144.9497000  -2.8332660    122.4672000   
12325000000   -1.3926200    125.7046000   -38.4055000   162.7523000   -27.5634200   -147.2542000  -2.8137640    120.9346000   
12350000000   -1.3848050    124.4152000   -38.0311100   159.3356000   -27.7798400   -149.5898000  -2.7923660    119.3578000   
12375000000   -1.3719420    123.1345000   -37.6604500   153.3413000   -27.9695700   -151.8327000  -2.7658120    117.7716000   
12400000000   -1.3696170    121.8230000   -37.4055600   149.1542000   -28.1675600   -154.0930000  -2.7415900    116.2009000   
12425000000   -1.3697920    120.6008000   -36.9862000   146.0596000   -28.3480900   -156.3297000  -2.7193100    114.6030000   
12450000000   -1.3601790    119.2306000   -36.6275600   142.4145000   -28.5357800   -158.6418000  -2.6993030    112.9877000   
12475000000   -1.3551050    118.0005000   -36.4469600   139.5214000   -28.7210600   -160.7438000  -2.6775720    111.3811000   
12500000000   -1.3514640    116.7430000   -36.0239300   137.9964000   -28.9026700   -162.9155000  -2.6578550    109.8404000   
12525000000   -1.3445810    115.5091000   -35.8053900   135.0796000   -29.0656600   -165.0127000  -2.6379750    108.2687000   
12550000000   -1.3504180    114.3312000   -35.4947300   133.0751000   -29.2302700   -167.0234000  -2.6359120    106.6542000   
12575000000   -1.3379070    113.0505000   -35.1959700   131.0707000   -29.3745300   -169.0600000  -2.6297090    104.9604000   
12600000000   -1.3355750    111.8008000   -34.9524300   129.6967000   -29.5234100   -171.0846000  -2.6259730    103.1924000   
12625000000   -1.3355140    110.5561000   -34.8126900   127.3955000   -29.6685700   -173.0113000  -2.6221230    101.4553000   
12650000000   -1.3433250    109.3166000   -34.2759400   125.9503000   -29.8099200   -174.9158000  -2.6147330    99.7255500    
12675000000   -1.3477210    108.0439000   -34.0841400   124.8140000   -29.9329500   -176.7725000  -2.6133510    97.9856700    
12700000000   -1.3437120    106.8607000   -33.8616800   123.3637000   -30.0466600   -178.5225000  -2.6164150    96.2340100    
12725000000   -1.3386940    105.6757000   -33.5309400   122.4292000   -30.1441800   179.6643000   -2.6258370    94.4684200    
12750000000   -1.3352150    104.4425000   -33.3623400   120.8066000   -30.2308100   177.8714000   -2.6321650    92.6919900    
12775000000   -1.3503190    103.2614000   -33.0358500   119.2775000   -30.3085600   176.1617000   -2.6385840    90.9651300    
12800000000   -1.3485590    102.0321000   -32.6929100   118.8755000   -30.3649300   174.3708000   -2.6453370    89.2493900    
12825000000   -1.3511730    100.8477000   -32.4131400   117.0350000   -30.4224100   172.6109000   -2.6599340    87.5324700    
12850000000   -1.3584350    99.5916100    -32.0811800   116.4359000   -30.4650100   170.8292000   -2.6730750    85.8181200    
12875000000   -1.3617690    98.4444900    -31.6987700   114.5840000   -30.4968200   169.0553000   -2.6921790    84.1394300    
12900000000   -1.3679480    97.2375000    -31.3223200   113.5605000   -30.5146600   167.2045000   -2.7050870    82.4734700    
12925000000   -1.3680420    96.0005100    -31.0593900   112.1158000   -30.5238900   165.2993000   -2.7210900    80.7685900    
12950000000   -1.3780030    94.7789300    -30.7476100   110.7050000   -30.5353900   163.3908000   -2.7523700    78.9932900    
12975000000   -1.3871670    93.6087600    -30.3830200   109.0445000   -30.5406200   161.4535000   -2.7681740    77.2417400    
13000000000   -1.3977160    92.2969400    -29.9994200   107.1850000   -30.5398400   159.4445000   -2.7807520    75.5215200    
13025000000   -1.4173730    91.0672100    -29.6640500   105.6455000   -30.5317100   157.4785000   -2.7941860    73.8489300    
13050000000   -1.4127080    89.8387900    -29.3182800   104.0392000   -30.5103000   155.4748000   -2.8171030    72.1684600    
13075000000   -1.4259300    88.6002900    -29.0541100   102.2984000   -30.5103900   153.4391000   -2.8396610    70.4517700    
13100000000   -1.4268890    87.4350600    -28.7350800   100.5679000   -30.4864400   151.3607000   -2.8574680    68.7646100    
13125000000   -1.4436550    86.2692200    -28.4517300   98.5002600    -30.4590900   149.2823000   -2.8756790    67.1040800    
13150000000   -1.4622950    85.0258200    -28.0700700   96.7839400    -30.4366900   147.1118000   -2.9072250    65.4438600    
13175000000   -1.4801710    83.8242200    -27.7948700   94.6919800    -30.4090100   145.0051000   -2.9400960    63.7073200    
13200000000   -1.4969230    82.5431100    -27.4756500   92.4502100    -30.3787400   142.8157000   -2.9667170    61.9473900    
13225000000   -1.5056210    81.3634000    -27.1219800   90.3170800    -30.3377900   140.5889000   -2.9894330    60.1920200    
13250000000   -1.5291060    80.0741700    -26.9170300   88.4723000    -30.3111600   138.3860000   -3.0275790    58.4536600    
13275000000   -1.5422160    78.8083700    -26.5416000   85.9659400    -30.2742400   136.1818000   -3.0641730    56.6889200    
13300000000   -1.5651610    77.4644700    -26.2244600   83.8203000    -30.2345500   133.8633000   -3.0890470    54.8824800    
13325000000   -1.5734890    76.2536100    -26.0038000   81.4013600    -30.1988500   131.6443000   -3.1245020    53.1111000    
13350000000   -1.5895920    75.1724200    -25.7528600   79.3733400    -30.1534800   129.3479000   -3.1615200    51.3317300    
13375000000   -1.6114300    73.8758400    -25.4008500   76.6234400    -30.1147500   127.0332000   -3.2123150    49.5026500    
13400000000   -1.6351760    72.6701100    -25.1502900   74.6473800    -30.0620300   124.7621000   -3.2466010    47.6720500    
13425000000   -1.6646640    71.4460900    -24.8924200   72.1886400    -30.0166500   122.4562000   -3.2758720    45.8736300    
13450000000   -1.6918170    70.2075100    -24.6238500   69.3477300    -29.9689400   120.1106000   -3.3169470    44.1204900    
13475000000   -1.7064640    69.0042000    -24.3666600   67.0512800    -29.9102400   117.7322000   -3.3736390    42.3018500    
13500000000   -1.7410070    67.6728600    -24.1128000   64.2973900    -29.8609400   115.2650000   -3.4283190    40.3506500    
13525000000   -1.7788460    66.4295800    -23.8973200   61.8487200    -29.8176200   112.9009000   -3.4616960    38.4093700    
13550000000   -1.8022950    65.0586700    -23.6583100   58.7420800    -29.7644100   110.4133000   -3.4929370    36.5908400    
13575000000   -1.8284000    63.7826600    -23.4454100   55.9495500    -29.7187500   107.9650000   -3.5347110    34.8722000    
13600000000   -1.8574250    62.5173000    -23.1884700   53.1444600    -29.6670400   105.4948000   -3.5812800    33.1048700    
13625000000   -1.8987230    61.3365200    -23.0152800   50.1242100    -29.6374300   103.0109000   -3.6136170    31.2569100    
13650000000   -1.9357270    60.0178800    -22.8294800   46.9929500    -29.6100200   100.4650000   -3.6442540    29.5315600    
13675000000   -1.9772710    58.8208400    -22.6652300   44.0131500    -29.5848200   97.9735600    -3.6626540    27.8930700    
13700000000   -2.0134530    57.5844700    -22.5477400   40.4848200    -29.5566000   95.4094200    -3.6928780    26.2223900    
13725000000   -2.0637920    56.2932100    -22.3983100   37.1718400    -29.5581000   92.9139300    -3.7102100    24.3977600    
13750000000   -2.1144740    54.9573700    -22.3021900   33.6784900    -29.5852700   90.4566000    -3.7094910    22.5753700    
13775000000   -2.1591110    53.6081000    -22.3074600   29.9620200    -29.6318100   88.0947600    -3.6896130    20.8170200    
13800000000   -2.2109940    52.3552400    -22.3390900   26.2519100    -29.7161100   85.9166000    -3.6552840    19.0476600    
13825000000   -2.2623160    50.9987400    -22.4839800   22.4490600    -29.7999000   83.9995700    -3.6052930    17.0791500    
13850000000   -2.3151460    49.7040900    -22.7975400   19.0575900    -29.9233300   82.4843700    -3.5221320    14.9211700    
13875000000   -2.3638790    48.2673300    -23.1594200   15.7401500    -30.0533000   81.6067300    -3.4132100    12.6551300    
13900000000   -2.4142930    46.9819900    -23.6998900   13.3972700    -30.1508400   81.4181700    -3.2840160    10.2053600    
13925000000   -2.4743080    45.7252200    -24.4042600   13.0806600    -30.1701100   82.0749500    -3.1670320    7.3913460     
13950000000   -2.5356260    44.3835400    -25.1883100   15.0835600    -30.0185100   83.2571900    -3.0565260    4.0737660     
13975000000   -2.6139800    42.9728900    -25.8624100   20.6217600    -29.6761200   84.5407900    -2.9661560    0.3145795     
14000000000   -2.6906030    41.4840500    -25.9478600   29.1840000    -29.1436200   85.2581800    -2.9109480    -3.7080420    
14025000000   -2.7732430    40.1175800    -25.1938300   36.9874900    -28.4762200   85.1025900    -2.9257810    -7.8785810    
14050000000   -2.8638730    38.6909900    -23.9778800   42.2550300    -27.7485800   83.7518500    -3.0092540    -12.1882600   
14075000000   -2.9784260    37.1672600    -22.5699500   43.6592400    -27.0371100   81.3767900    -3.1448620    -16.4992700   
14100000000   -3.1027770    35.6680400    -21.2946600   42.7089400    -26.3863200   78.1793300    -3.3190150    -20.7906800   
14125000000   -3.2206860    34.1732900    -20.2201600   39.9469000    -25.8056000   74.5246500    -3.5197220    -24.8914600   
14150000000   -3.3459950    32.8137100    -19.2628900   36.2685200    -25.2826800   70.6151400    -3.7462160    -28.7315900   
14175000000   -3.4822640    31.5229700    -18.4404800   32.4033700    -24.8122700   66.6198800    -3.9893440    -32.3806300   
14200000000   -3.6399500    30.2540500    -17.7224200   28.0987800    -24.3866700   62.5172500    -4.2431530    -35.9739800   
14225000000   -3.7989730    28.9325200    -17.1232200   23.7516300    -23.9857100   58.3311000    -4.4890770    -39.5382400   
14250000000   -3.9688270    27.7110700    -16.5811400   19.2608900    -23.6212500   54.1808000    -4.7367190    -42.9488800   
14275000000   -4.1469680    26.4863200    -16.0941200   14.9960000    -23.2806100   50.0140900    -4.9843890    -46.1863300   
14300000000   -4.3291900    25.3651100    -15.6357900   10.6018400    -22.9384000   45.8866800    -5.2514610    -49.3838500   
14325000000   -4.5183930    24.2867800    -15.2154300   6.3846700     -22.6085400   41.7179600    -5.5216270    -52.7137300   
14350000000   -4.7203510    23.3103500    -14.8420800   2.0346090     -22.2874000   37.5076700    -5.7881650    -56.1304700   
14375000000   -4.9207180    22.3775300    -14.4759200   -2.1464410    -21.9717300   33.2716300    -6.0353990    -59.5408700   
14400000000   -5.1350030    21.3889900    -14.1333000   -6.2287750    -21.6678300   28.9430300    -6.2909650    -62.8368000   
14425000000   -5.3517830    20.5444800    -13.8163100   -10.5000400   -21.3711700   24.5883600    -6.5601160    -66.1518400   
14450000000   -5.5762050    19.7878500    -13.5127200   -14.7219000   -21.0809900   20.1747300    -6.8280420    -69.5479600   
14475000000   -5.8012590    19.1193300    -13.2218800   -18.7961100   -20.7919300   15.7398100    -7.0881540    -72.9999800   
14500000000   -6.0435430    18.4566200    -12.9323600   -23.0437000   -20.5136700   11.1937700    -7.3518700    -76.3677800   
14525000000   -6.2955800    17.9045200    -12.6582300   -27.2137900   -20.2522300   6.5811110     -7.6330350    -79.7393300   
14550000000   -6.5484930    17.4311700    -12.3966400   -31.2846200   -19.9934900   1.9198050     -7.9125100    -83.1125000   
14575000000   -6.7992730    17.1464000    -12.1420300   -35.6046400   -19.7472200   -2.8168950    -8.2009280    -86.4989300   
14600000000   -7.0815530    16.9781200    -11.8932300   -39.7805600   -19.5111800   -7.6147210    -8.4757260    -89.7688300   
14625000000   -7.3697560    16.8502100    -11.6751400   -44.0854600   -19.2873300   -12.5246900   -8.7686180    -92.9182500   
14650000000   -7.6595660    16.8515900    -11.4532000   -48.3893700   -19.0879400   -17.5022900   -9.0559230    -95.9723200   
14675000000   -7.9373510    17.0538500    -11.2624700   -52.7328700   -18.9062200   -22.4942400   -9.3283650    -98.7600200   
14700000000   -8.2297450    17.7010900    -11.0739500   -57.0972100   -18.7457800   -27.5665900   -9.5727640    -101.2940000  
14725000000   -8.5328310    18.5854400    -10.9105000   -61.4700500   -18.6097200   -32.6809200   -9.7934010    -103.5212000  
14750000000   -8.8397000    19.6033500    -10.7631100   -65.7640000   -18.5028600   -37.8022600   -9.9620800    -105.6031000  
14775000000   -9.1131060    20.8910300    -10.6239600   -70.1470700   -18.4237300   -42.8845100   -10.0304500   -107.4463000  
14800000000   -9.3467730    22.6527700    -10.5094900   -74.3873700   -18.3783500   -47.8703700   -10.0329800   -109.1801000  
14825000000   -9.5582800    24.7134200    -10.4073600   -78.5835600   -18.3542300   -52.7433900   -9.9792050    -111.0619000  
14850000000   -9.7320590    27.0686000    -10.3125000   -82.7857600   -18.3388900   -57.4703600   -9.8451060    -113.4564000  
14875000000   -9.8473990    29.4995500    -10.2172100   -86.9231500   -18.3480100   -62.0726900   -9.6427820    -116.3379000  
14900000000   -9.8864770    32.0308400    -10.1222800   -91.0444200   -18.3610500   -66.4718900   -9.4048670    -119.3804000  
14925000000   -9.8236670    34.6423000    -10.0418200   -95.1435500   -18.3673700   -70.7461300   -9.1902560    -122.6119000  
14950000000   -9.6875350    37.3629600    -9.9531710    -99.2557100   -18.3739800   -74.9334300   -9.0194010    -126.2851000  
14975000000   -9.5174100    40.0514000    -9.8867060    -103.3439000  -18.3692600   -79.0424800   -8.8362260    -130.4421000  
15000000000   -9.3024620    42.2815100    -9.8228760    -107.4914000  -18.3701300   -83.1346400   -8.6269720    -134.6115000  
15025000000   -9.0270030    43.9057800    -9.7707820    -111.5981000  -18.3694800   -87.1961400   -8.4423290    -138.5561000  
15050000000   -8.6808430    45.2822200    -9.7319090    -115.7535000  -18.3670300   -91.2236200   -8.3131560    -142.5396000  
15075000000   -8.3096800    46.4410900    -9.7148590    -119.8855000  -18.3643600   -95.2264300   -8.1875170    -146.8493000  
15100000000   -7.9383210    47.3649800    -9.6855980    -123.9731000  -18.3700000   -99.2161100   -8.0243090    -151.1914000  
15125000000   -7.5823890    47.9527200    -9.6855680    -128.0602000  -18.3780400   -103.1767000  -7.8510160    -155.1454000  
15150000000   -7.2280140    48.0798500    -9.6887510    -132.0054000  -18.3846900   -107.0962000  -7.7193670    -158.8463000  
15175000000   -6.8631630    47.9917100    -9.7022880    -135.9720000  -18.4018300   -110.9647000  -7.6291950    -162.7207000  
15200000000   -6.5059550    47.6862100    -9.7227930    -139.9359000  -18.4184100   -114.8601000  -7.5190440    -166.8336000  
15225000000   -6.1673130    47.2978900    -9.7587910    -143.8504000  -18.4496700   -118.6797000  -7.3732750    -170.7884000  
15250000000   -5.8488340    46.6346500    -9.8037440    -147.7097000  -18.4756600   -122.4548000  -7.2391480    -174.4474000  
15275000000   -5.5341480    45.7174900    -9.8420310    -151.4920000  -18.5121700   -126.2161000  -7.1379960    -178.0434000  
15300000000   -5.2271720    44.6953900    -9.9039840    -155.2429000  -18.5508100   -129.9460000  -7.0318480    178.2014000   
15325000000   -4.9336880    43.6759600    -9.9700390    -159.0191000  -18.6008000   -133.6119000  -6.9055730    174.4352000   
15350000000   -4.6564510    42.5245200    -10.0389400   -162.6406000  -18.6507400   -137.2292000  -6.7681410    170.9509000   
15375000000   -4.4103300    41.1935500    -10.1145300   -166.2225000  -18.7023000   -140.8340000  -6.6408980    167.6266000   
15400000000   -4.1701460    39.8076400    -10.2065600   -169.7590000  -18.7657300   -144.3260000  -6.5455780    164.3116000   
15425000000   -3.9453720    38.2806800    -10.2943200   -173.2438000  -18.8387700   -147.7796000  -6.4555610    160.9708000   
15450000000   -3.7314240    36.7540300    -10.3916300   -176.6716000  -18.9073800   -151.1651000  -6.3535100    157.6962000   
15475000000   -3.5378920    35.2024000    -10.4908000   179.9879000   -18.9859800   -154.4843000  -6.2585090    154.5122000   
15500000000   -3.3619610    33.6286200    -10.6054000   176.7340000   -19.0603200   -157.7222000  -6.1783430    151.3972000   
15525000000   -3.1976710    31.9689900    -10.6990500   173.5395000   -19.1396600   -160.9539000  -6.0963670    148.3486000   
15550000000   -3.0471040    30.3040000    -10.8032700   170.3564000   -19.2235100   -164.0905000  -6.0317510    145.3765000   
15575000000   -2.9057870    28.6021700    -10.9178000   167.3326000   -19.3118000   -167.1897000  -5.9854540    142.4631000   
15600000000   -2.7804060    26.9724800    -11.0141200   164.2456000   -19.3926900   -170.1539000  -5.9385400    139.5746000   
15625000000   -2.6606550    25.2436100    -11.1246100   161.2515000   -19.4786000   -173.1465000  -5.8795420    136.8857000   
15650000000   -2.5506230    23.5517300    -11.2348600   158.2061000   -19.5709600   -176.1149000  -5.8401490    134.4930000   
15675000000   -2.4597750    21.8979400    -11.3470900   155.2575000   -19.6793900   -178.9445000  -5.8328720    132.4023000   
15700000000   -2.3707950    20.2345600    -11.4712800   152.2914000   -19.7973600   178.2424000   -5.8249710    130.4374000   
15725000000   -2.2900920    18.6005400    -11.6517800   149.3246000   -19.9470300   175.6686000   -5.7763230    128.6749000   
15750000000   -2.2152790    16.9343500    -11.8690500   146.8083000   -20.1192600   173.4422000   -5.6425510    127.1181000   
15775000000   -2.1352860    15.3711800    -12.0779000   145.0383000   -20.2474300   171.9294000   -5.4367190    125.4171000   
15800000000   -2.0580210    13.8292300    -12.1829600   143.6479000   -20.2661600   170.5931000   -5.2445610    123.1436000   
15825000000   -1.9949870    12.1733800    -12.1913400   142.2859000   -20.2081700   168.9992000   -5.1074090    120.4304000   
15850000000   -1.9272000    10.5091800    -12.1328900   140.4094000   -20.1149000   167.0301000   -5.0043470    117.7256000   
15875000000   -1.8635960    8.7930430     -12.0727000   138.1449000   -20.0197800   164.7797000   -4.9291600    115.2740000   
15900000000   -1.8060180    7.1069740     -12.0276300   135.8019000   -19.9418100   162.3530000   -4.8884160    113.0418000   
15925000000   -1.7466160    5.5130390     -11.9861700   133.1486000   -19.8708300   159.8407000   -4.8565270    110.8063000   
15950000000   -1.7011850    3.9437390     -11.9511800   130.5390000   -19.8060700   157.2409000   -4.7948050    108.5195000   
15975000000   -1.6639640    2.2791090     -11.9297500   127.6971000   -19.7616300   154.5370000   -4.7201910    106.3205000   
16000000000   -1.6244240    0.6195748     -11.9372700   124.9348000   -19.7329200   151.9172000   -4.6403030    104.3261000   
16025000000   -1.5893480    -0.9978859    -11.9495700   122.2280000   -19.7007800   149.3276000   -4.5620140    102.4122000   
16050000000   -1.5408590    -2.5545150    -11.9514100   119.4332000   -19.6580300   146.7068000   -4.4790270    100.4643000   
16075000000   -1.5133270    -4.1192220    -11.9656200   116.7073000   -19.6365100   144.0738000   -4.3989010    98.4603300    
16100000000   -1.4974700    -5.7967530    -11.9945100   113.9705000   -19.6182100   141.4679000   -4.3127120    96.5985600    
16125000000   -1.4770880    -7.4818940    -12.0179700   111.2968000   -19.6005900   138.9438000   -4.2327590    94.8472700    
16150000000   -1.4531500    -9.1775170    -12.0513800   108.6172000   -19.5840500   136.3759000   -4.1668860    92.9997100    
16175000000   -1.4227370    -10.7746100   -12.0749800   105.9033000   -19.5613000   133.8720000   -4.1114930    91.0408400    
16200000000   -1.4126900    -12.3851700   -12.1241300   103.2667000   -19.5508600   131.2876000   -4.0470950    89.0188400    
16225000000   -1.4144580    -13.9816700   -12.1514100   100.7013000   -19.5378000   128.8709000   -3.9689390    87.1533800    
16250000000   -1.4048740    -15.5895100   -12.1882400   98.1861000    -19.5233000   126.5070000   -3.9031110    85.4257700    
16275000000   -1.3877710    -17.1965800   -12.2065600   95.6631000    -19.4913100   124.1094000   -3.8446270    83.7023000    
16300000000   -1.3838230    -18.8211100   -12.2603300   93.0097000    -19.4685300   121.6328000   -3.8046330    81.8695400    
16325000000   -1.3921000    -20.4811900   -12.2884900   90.4774400    -19.4480100   119.1927000   -3.7551790    79.9661600    
16350000000   -1.4004870    -22.2130400   -12.3270500   87.8918200    -19.4243100   116.7807000   -3.6935220    78.1581800    
16375000000   -1.3916650    -23.8878700   -12.3624300   85.2935000    -19.3954500   114.3885000   -3.6419570    76.5297000    
16400000000   -1.3903030    -25.4545900   -12.4067100   82.7644000    -19.3541000   111.9842000   -3.5959200    74.9174300    
16425000000   -1.3982490    -27.0497600   -12.4818100   80.1682400    -19.3397300   109.4559000   -3.5772540    73.1726300    
16450000000   -1.4179400    -28.6803200   -12.5540200   77.6927800    -19.3180600   107.0040000   -3.5305580    71.4506500    
16475000000   -1.4346790    -30.3822800   -12.6372400   75.5438300    -19.2918800   104.5295000   -3.4524190    69.8484000    
16500000000   -1.4404060    -32.1001200   -12.7052000   73.4118300    -19.2991800   102.0906000   -3.3913820    68.3231600    
16525000000   -1.4418550    -33.7440300   -12.7739700   71.4909100    -19.3057300   99.7490800    -3.3415110    66.7051800    
16550000000   -1.4553740    -35.2936200   -12.7898800   69.7226300    -19.3060100   97.5933800    -3.2784210    64.8943300    
16575000000   -1.4736590    -36.9986400   -12.7797400   67.8752200    -19.2921000   95.4489300    -3.2146020    63.0360900    
16600000000   -1.5018550    -38.8140300   -12.7502300   65.9502300    -19.2685500   93.3709200    -3.1616160    61.2587200    
16625000000   -1.5078880    -40.7722900   -12.6796100   63.8597200    -19.2216100   91.2733100    -3.1174030    59.4842100    
16650000000   -1.5204800    -42.5678600   -12.6447200   61.6566000    -19.1798100   89.1869200    -3.0947300    57.5860400    
16675000000   -1.5415840    -44.2739100   -12.6167000   59.4206800    -19.1347300   87.0580700    -3.0621360    55.6684000    
16700000000   -1.5760590    -45.9693000   -12.5726200   57.2248600    -19.0715000   84.9999400    -3.0173580    53.9077500    
16725000000   -1.6205190    -47.9419000   -12.5230100   54.8318200    -18.9918000   82.7737400    -2.9806440    52.2499500    
16750000000   -1.6436720    -49.8911900   -12.4755000   52.4469200    -18.9254400   80.5434600    -2.9812540    50.5326700    
16775000000   -1.6807960    -51.7865800   -12.4382900   50.0406900    -18.8610900   78.3644400    -2.9696770    48.7545500    
16800000000   -1.7173050    -53.5708100   -12.3962500   47.8272900    -18.7757400   76.1563600    -2.9361180    47.0597600    
16825000000   -1.7833110    -55.4307100   -12.3456100   45.4061900    -18.6921100   73.8600900    -2.9211500    45.4453900    
16850000000   -1.8385370    -57.4743000   -12.2846600   42.8696000    -18.6055100   71.4716500    -2.9379180    43.8314200    
16875000000   -1.8854380    -59.5310100   -12.2368900   40.4778600    -18.5091200   69.1193500    -2.9482230    42.1241100    
16900000000   -1.9454420    -61.6102100   -12.1923000   38.0189500    -18.4429500   66.6752800    -2.9529730    40.3833600    
16925000000   -2.0103480    -63.5726100   -12.1524000   35.6956200    -18.3655900   64.3131000    -2.9529910    38.8813600    
16950000000   -2.0849330    -65.6026400   -12.0812100   33.1134100    -18.2714400   61.8577800    -2.9638630    37.4906000    
16975000000   -2.1645630    -67.7408800   -12.0300900   30.6365300    -18.1908500   59.3228000    -3.0196930    35.9706700    
17000000000   -2.2514610    -69.9126400   -11.9753000   28.0717200    -18.1257200   56.8396400    -3.0679460    34.3977100    
17025000000   -2.3371970    -72.1667600   -11.9228200   25.6204500    -18.0476700   54.3598100    -3.0767030    32.9775700    
17050000000   -2.4406980    -74.3482600   -11.8591300   23.0685100    -17.9838200   51.9088800    -3.0895330    31.7878400    
17075000000   -2.5458200    -76.5944800   -11.7941400   20.5478400    -17.9062000   49.4665400    -3.1175470    30.7405600    
17100000000   -2.6643620    -78.8644000   -11.7065500   17.9309900    -17.8196900   47.0277100    -3.1506350    29.5791500    
17125000000   -2.8009130    -81.2953300   -11.6430700   15.3340800    -17.7445900   44.5034800    -3.1660830    28.3384400    
17150000000   -2.9475830    -83.6877200   -11.5643000   12.7294600    -17.6458600   42.0785800    -3.1472570    27.1850200    
17175000000   -3.1069830    -86.2626600   -11.4688000   9.8816170     -17.5530300   39.5110700    -3.1245680    26.1127500    
17200000000   -3.2665820    -88.8719600   -11.3928200   7.1319080     -17.4513900   36.8981800    -3.1148240    25.0568900    
17225000000   -3.4589430    -91.4675700   -11.3190400   4.2337640     -17.3537600   34.3001900    -3.1022410    23.8791000    
17250000000   -3.6633190    -94.1150700   -11.2201200   1.2771160     -17.2503200   31.5675500    -3.0843080    22.6102700    
17275000000   -3.8965860    -96.9191700   -11.1413300   -1.7107420    -17.1491700   28.8214900    -3.0556580    21.3356200    
17300000000   -4.1324150    -99.8104700   -11.0765700   -4.7516480    -17.0487400   26.0100800    -3.0245370    20.0844500    
17325000000   -4.3747960    -102.5927000  -11.0047500   -7.8012110    -16.9539900   23.1280400    -2.9941080    18.8428300    
17350000000   -4.6708070    -105.3793000  -10.9390600   -10.9410200   -16.8559500   20.1724800    -2.9647460    17.6015900    
17375000000   -5.0151010    -108.2618000  -10.8660700   -14.1369100   -16.7608700   17.1702700    -2.9343790    16.3292400    
17400000000   -5.3809360    -111.3247000  -10.8126900   -17.3718400   -16.6742200   14.1230300    -2.9097960    15.0290500    
17425000000   -5.7664110    -114.6216000  -10.7648800   -20.7283900   -16.6041500   10.9669100    -2.8787700    13.7636700    
17450000000   -6.2048300    -117.6041000  -10.7229900   -23.9761100   -16.5434100   7.8030520     -2.8494870    12.5404300    
17475000000   -6.7016450    -120.7388000  -10.6968300   -27.2856600   -16.4783900   4.6229650     -2.8180280    11.4164900    
17500000000   -7.2617870    -124.1221000  -10.6565400   -30.7054800   -16.4082500   1.3149460     -2.7883170    10.1887600    
17525000000   -7.8513880    -127.7168000  -10.6296700   -34.1695100   -16.3745500   -2.1196970    -2.7740760    8.7954420     
17550000000   -8.4854180    -131.0664000  -10.6220800   -37.7248300   -16.3483000   -5.4536840    -2.7419760    7.4498390     
17575000000   -9.2235150    -134.1036000  -10.6345700   -41.1213100   -16.3332000   -8.8339680    -2.7078010    6.1546910     
17600000000   -10.1015600   -137.4814000  -10.6360200   -44.6280800   -16.3295600   -12.2214100   -2.6711380    4.9163160     
17625000000   -11.0895500   -141.1201000  -10.6585400   -48.0422100   -16.3416100   -15.6267800   -2.6395040    3.6351560     
17650000000   -12.1493000   -144.8089000  -10.6910600   -51.5104300   -16.3634900   -19.1048100   -2.6064240    2.2748190     
17675000000   -13.3310900   -148.0878000  -10.7370300   -55.0286100   -16.4139400   -22.5608700   -2.5806340    0.9533370     
17700000000   -14.8717900   -150.7539000  -10.7991100   -58.2994900   -16.4731900   -25.8561600   -2.5548350    -0.2336979    
17725000000   -16.8249900   -153.8032000  -10.8298100   -61.6831500   -16.5361500   -29.1782000   -2.5342560    -1.4578600    
17750000000   -19.2137200   -157.7021000  -10.8975400   -65.0267900   -16.6298000   -32.5528800   -2.5307910    -2.8082530    
17775000000   -22.2278300   -162.0276000  -10.9699400   -68.3276700   -16.7414000   -35.8043400   -2.5326100    -4.1775120    
17800000000   -26.6754400   -162.9079000  -11.0281600   -71.4837800   -16.8509900   -38.8371500   -2.5340900    -5.4855270    
17825000000   -37.0175800   -151.9091000  -11.0837500   -74.4409800   -16.9649600   -41.7063800   -2.5356960    -6.7682440    
17850000000   -34.1068000   -4.6332180    -11.1191900   -77.5092000   -17.0741200   -44.5359300   -2.5372840    -8.0606550    
17875000000   -26.1799300   0.6060154     -11.1320200   -80.6692100   -17.1759500   -47.3316300   -2.5509690    -9.3297330    
17900000000   -22.2842900   -0.8644801    -11.1284700   -83.7499600   -17.2524700   -49.9532100   -2.5660020    -10.4638100   
17925000000   -19.5662000   -3.7868780    -11.0846900   -87.1572500   -17.3019000   -52.6428000   -2.5702690    -11.6777500   
17950000000   -17.4426500   -6.1983090    -11.0675000   -90.7509300   -17.3443400   -55.4545000   -2.5560670    -12.8686300   
17975000000   -15.7049600   -8.0347380    -11.0511100   -94.5577300   -17.3772100   -58.4364500   -2.5066680    -13.9221400   
18000000000   -14.3895500   -9.9143390    -11.0814900   -98.7047300   -17.4254000   -61.7160100   -2.4600970    -15.0002800   
18025000000   -13.3177700   -12.5883600   -11.1256300   -102.8506000  -17.5069800   -65.0190400   -2.4157960    -16.0437900   
18050000000   -12.3314800   -16.1232200   -11.2403800   -107.0856000  -17.6128900   -68.4556700   -2.3543130    -17.3532800   
18075000000   -11.4133400   -19.5865200   -11.3979500   -111.2230000  -17.7760800   -71.9231900   -2.2835820    -18.8334500   
18100000000   -10.6311700   -22.6365800   -11.5901000   -115.0308000  -17.9781000   -75.0912600   -2.2091300    -20.1052100   
18125000000   -10.0465200   -25.6932800   -11.7743900   -118.6522000  -18.1932700   -78.0393800   -2.1598960    -21.3381400   
18150000000   -9.5801020    -29.0625000   -11.9651100   -122.0151000  -18.4210400   -80.7781500   -2.1363850    -22.7932200   
18175000000   -9.1847680    -32.5019500   -12.1394200   -125.2177000  -18.6367400   -83.2010300   -2.1070810    -24.3510400   
18200000000   -8.8044720    -35.5445600   -12.2579000   -128.2175000  -18.8173000   -85.3270800   -2.0506480    -25.8130000   
18225000000   -8.5083390    -37.8028600   -12.3728000   -131.3976000  -18.9567500   -87.5030700   -2.0026100    -27.1289900   
18250000000   -8.2693210    -39.6934300   -12.4360900   -134.7898000  -19.0562900   -89.7611100   -1.9675130    -28.3422400   
18275000000   -8.0369150    -41.6451800   -12.4856700   -138.5580000  -19.1270900   -92.3575400   -1.9337080    -29.7372000   
18300000000   -7.7521280    -43.6738900   -12.5930600   -142.5871000  -19.2217800   -95.2268100   -1.8864170    -31.1764300   
18325000000   -7.4130150    -45.5663100   -12.7377600   -146.6583000  -19.3569200   -98.2424300   -1.8330420    -32.5223500   
18350000000   -7.0984040    -47.4345900   -12.9235900   -150.7339000  -19.5255500   -101.2510000  -1.7996860    -33.8320500   
18375000000   -6.8273360    -49.5533800   -13.1369100   -154.7525000  -19.7260400   -104.2587000  -1.7808660    -35.3029600   
18400000000   -6.5872550    -51.9604800   -13.3631300   -158.6831000  -19.9544600   -107.2216000  -1.7543180    -37.0062200   
18425000000   -6.3389570    -54.5451000   -13.6053500   -162.5927000  -20.2085400   -110.0227000  -1.7154320    -38.6634900   
18450000000   -6.1066190    -57.2173400   -13.8965300   -166.4011000  -20.4947900   -112.6571000  -1.6920070    -40.1241500   
18475000000   -5.9148860    -59.6751200   -14.1727700   -169.9277000  -20.7862700   -115.0257000  -1.6870170    -41.4782800   
18500000000   -5.7548750    -62.1309100   -14.4427300   -173.3441000  -21.0814100   -117.2077000  -1.6979890    -42.9793300   
18525000000   -5.6221470    -64.7176800   -14.7198400   -176.8989000  -21.3690500   -119.3277000  -1.6929970    -44.6344700   
18550000000   -5.5053480    -67.2878600   -15.0182300   179.6678000   -21.6672700   -121.2938000  -1.6842410    -46.2819400   
18575000000   -5.3945770    -69.8245700   -15.3067900   176.4370000   -21.9712000   -122.9790000  -1.6899010    -47.6933400   
18600000000   -5.3172690    -72.2659500   -15.6050300   173.1836000   -22.2590600   -124.5582000  -1.7002460    -49.1398500   
18625000000   -5.2747510    -74.6388000   -15.8872100   169.9579000   -22.5369900   -126.0342000  -1.7130000    -50.7675600   
18650000000   -5.2499000    -77.0599300   -16.1798700   166.7909000   -22.8027200   -127.3615000  -1.7184750    -52.4459000   
18675000000   -5.2348670    -79.6360700   -16.4773900   163.6043000   -23.0598600   -128.6268000  -1.7162580    -54.0165700   
18700000000   -5.2240800    -82.2276800   -16.7920800   160.5084000   -23.3170900   -129.7710000  -1.7182810    -55.4738100   
18725000000   -5.2171650    -84.6303600   -17.0678700   157.4773000   -23.5549300   -130.6714000  -1.7239420    -56.8307900   
18750000000   -5.2247700    -86.9364200   -17.3561000   154.3816000   -23.7673800   -131.6112000  -1.7136200    -58.2843400   
18775000000   -5.2641520    -89.2316600   -17.6397000   151.1837000   -23.9727400   -132.5881000  -1.7177860    -59.8485800   
18800000000   -5.3177380    -91.6177200   -17.9759100   148.2655000   -24.1794600   -133.3825000  -1.7249390    -61.1942700   
18825000000   -5.3611760    -94.0619300   -18.2522200   145.2051000   -24.3634900   -134.2265000  -1.7263440    -62.6090300   
18850000000   -5.4144890    -96.3871200   -18.5348100   142.0144000   -24.5453400   -135.0455000  -1.7305820    -64.1039700   
18875000000   -5.4885300    -98.5018300   -18.8392800   138.6589000   -24.7257900   -135.7004000  -1.7255760    -65.5599400   
18900000000   -5.5903640    -100.7691000  -19.1476800   135.4612000   -24.8967800   -136.3560000  -1.7152780    -66.9767600   
18925000000   -5.6977000    -103.1933000  -19.4867200   132.1062000   -25.0761200   -136.9470000  -1.7083560    -68.2844400   
18950000000   -5.8100120    -105.5274000  -19.8071700   128.7398000   -25.2556500   -137.3819000  -1.7100640    -69.6479300   
18975000000   -5.9139180    -107.6746000  -20.1631300   125.1138000   -25.4290600   -137.7152000  -1.7184700    -71.1710200   
19000000000   -6.0670100    -109.6493000  -20.5525800   121.5316000   -25.6111100   -137.7756000  -1.7183580    -72.6824900   
19025000000   -6.2695510    -111.8165000  -20.9484300   118.0300000   -25.7704100   -137.5234000  -1.6961560    -74.0341300   
19050000000   -6.4704270    -114.3119000  -21.3742900   114.0793000   -25.9110200   -137.0901000  -1.6843400    -75.1799900   
19075000000   -6.6651480    -116.8950000  -21.8666900   109.8511000   -26.0209700   -136.3416000  -1.6983680    -76.3480900   
19100000000   -6.8563460    -119.0319000  -22.3911100   105.8720000   -26.0872300   -135.3017000  -1.7367970    -77.8278000   
19125000000   -7.0910980    -120.8940000  -22.9854600   101.5000000   -26.0907700   -133.9564000  -1.7675980    -79.5806400   
19150000000   -7.3997610    -122.7198000  -23.6684600   97.0597700    -26.0219500   -132.3379000  -1.7733720    -81.3495900   
19175000000   -7.7608190    -124.6133000  -24.4553800   92.0922200    -25.8519200   -130.5706000  -1.7742730    -82.8550300   
19200000000   -8.1631040    -126.6184000  -25.4120700   86.9530000    -25.5731200   -128.8299000  -1.7930870    -84.3348000   
19225000000   -8.6055360    -128.3938000  -26.4904500   81.9901700    -25.1815600   -127.3017000  -1.8305090    -85.9135800   
19250000000   -9.1270290    -130.0903000  -27.8719500   76.3418600    -24.6907800   -126.1676000  -1.8543090    -87.6582500   
19275000000   -9.7251510    -131.6648000  -29.6819200   70.4589200    -24.1121500   -125.4842000  -1.8703300    -89.2396300   
19300000000   -10.3672000   -133.1424000  -32.3118900   64.6198900    -23.4488300   -125.4189000  -1.8821470    -90.5202500   
19325000000   -11.0481400   -133.8061000  -35.9120100   57.5712100    -22.7271200   -126.0550000  -1.9294990    -91.7809400   
19350000000   -11.7488200   -133.3812000  -43.3417200   48.5238600    -21.9601100   -127.4484000  -2.0111720    -93.1588300   
19375000000   -12.5395600   -131.3744000  -48.6202200   -133.2587000  -21.1678500   -129.8394000  -2.0838970    -94.8559500   
19400000000   -13.3541300   -127.7656000  -37.1220000   -141.9883000  -20.3978100   -133.0787000  -2.1491890    -96.6226500   
19425000000   -14.0737400   -122.7941000  -31.9404500   -150.7815000  -19.6549500   -137.0405000  -2.2003110    -98.1093200   
19450000000   -14.5712900   -117.1180000  -28.8976400   -160.1669000  -18.9541900   -141.9712000  -2.2535350    -99.3726000   
19475000000   -14.7577500   -111.8960000  -26.6353000   -169.5097000  -18.3510600   -147.7449000  -2.3374370    -100.5313000  
19500000000   -14.8058100   -107.2433000  -24.9845700   -179.5444000  -17.8746200   -154.1817000  -2.4195850    -101.6871000  
19525000000   -14.8704000   -103.1299000  -23.9633300   170.7854000   -17.5600400   -161.1879000  -2.4777280    -102.8929000  
19550000000   -14.9899900   -97.8259700   -23.3324300   161.3182000   -17.4462200   -168.0959000  -2.5023340    -103.8572000  
19575000000   -14.9798700   -90.0285100   -23.0914000   153.9266000   -17.4872200   -174.4309000  -2.5032840    -104.5840000  
19600000000   -14.4261000   -81.5081300   -22.9375600   148.6699000   -17.6237100   -179.8880000  -2.5130610    -105.2904000  
19625000000   -13.3879500   -74.6242400   -22.7617100   144.3440000   -17.7643800   175.4673000   -2.5154850    -106.2238000  
19650000000   -12.0852200   -70.8574300   -22.4839200   141.2917000   -17.8739400   171.3142000   -2.4984880    -107.4904000  
19675000000   -10.8370500   -69.9549100   -22.1023100   137.7851000   -17.9512700   167.4762000   -2.4695140    -108.7095000  
19700000000   -9.7663630    -70.9381600   -21.6462400   134.0923000   -17.9796800   163.7127000   -2.4384130    -109.7164000  
19725000000   -8.8660250    -72.9758100   -21.1775100   129.9334000   -17.9859300   159.9548000   -2.4310060    -110.7145000  
19750000000   -8.1106020    -75.6688800   -20.7840300   125.3082000   -17.9847000   156.0609000   -2.4454150    -111.9247000  
19775000000   -7.4902070    -78.6530600   -20.3888900   120.3549000   -17.9822900   152.0359000   -2.4444210    -113.2600000  
19800000000   -6.9720840    -81.6492100   -20.0467700   115.0347000   -17.9844200   147.9904000   -2.4226990    -114.6054000  
19825000000   -6.5499010    -84.5206500   -19.7550600   109.9653000   -17.9991500   143.8933000   -2.4245560    -115.8683000  
19850000000   -6.2088050    -87.5705900   -19.5109800   104.6553000   -18.0242600   139.7233000   -2.4342410    -117.1961000  
19875000000   -5.9265330    -90.5005300   -19.2774800   99.2631200    -18.0753800   135.5828000   -2.4353140    -118.7682000  
19900000000   -5.6787860    -93.2110000   -19.1416400   93.7323800    -18.1316800   131.4811000   -2.4212280    -120.3032000  
19925000000   -5.4628080    -95.7251700   -18.9841000   88.6198500    -18.1855000   127.4239000   -2.3968240    -121.6013000  
19950000000   -5.3111050    -98.1955200   -18.8617500   83.2871600    -18.2524100   123.4436000   -2.3895230    -122.8583000  
19975000000   -5.1740790    -100.6018000  -18.7674800   78.3142000    -18.3239300   119.3906000   -2.4083130    -124.2595000  
20000000000   -5.0556780    -103.0333000  -18.7211100   73.0850600    -18.4086300   115.3377000   -2.4188380    -125.7868000  
